time[s] cpu.0.freq[MHz] cpu.0.recload cpu.0.load max(freqs)[MHz] sum(recloads) max(recloads) sum(loads) max(loads)
0.025 2000 0.001 0.001 2000 0.001 0.001 0.001 0.001
0.050 2000 0.002 0.002 2000 0.002 0.002 0.002 0.002
0.075 2000 0.003 0.003 2000 0.003 0.003 0.003 0.003
0.100 2000 0.003 0.003 2000 0.003 0.003 0.003 0.003
0.125 2000 0.004 0.004 2000 0.004 0.004 0.004 0.004
0.150 2000 0.005 0.005 2000 0.005 0.005 0.005 0.005
0.175 2000 0.006 0.006 2000 0.006 0.006 0.006 0.006
0.200 2000 0.007 0.007 2000 0.007 0.007 0.007 0.007
0.225 2000 0.007 0.007 2000 0.007 0.007 0.007 0.007
0.250 2000 0.008 0.008 2000 0.008 0.008 0.008 0.008
0.275 2000 0.009 0.009 2000 0.009 0.009 0.009 0.009
0.300 2000 0.010 0.010 2000 0.010 0.010 0.010 0.010
0.325 2000 0.011 0.011 2000 0.011 0.011 0.011 0.011
0.350 2000 0.012 0.012 2000 0.012 0.012 0.012 0.012
0.375 2000 0.013 0.013 2000 0.013 0.013 0.013 0.013
0.400 2000 0.013 0.013 2000 0.013 0.013 0.013 0.013
0.425 2000 0.014 0.014 2000 0.014 0.014 0.014 0.014
0.450 2000 0.015 0.015 2000 0.015 0.015 0.015 0.015
0.475 2000 0.016 0.016 2000 0.016 0.016 0.016 0.016
0.500 2000 0.017 0.017 2000 0.017 0.017 0.017 0.017
0.525 2000 0.018 0.018 2000 0.018 0.018 0.018 0.018
0.550 500 0.018 0.073 500 0.018 0.018 0.073 0.073
0.575 500 0.019 0.077 500 0.019 0.019 0.077 0.077
0.600 500 0.020 0.080 500 0.020 0.020 0.080 0.080
0.625 500 0.021 0.083 500 0.021 0.021 0.083 0.083
0.650 500 0.022 0.087 500 0.022 0.022 0.087 0.087
0.675 500 0.022 0.090 500 0.022 0.022 0.090 0.090
0.700 500 0.023 0.093 500 0.023 0.023 0.093 0.093
0.725 500 0.024 0.097 500 0.024 0.024 0.097 0.097
0.750 500 0.025 0.100 500 0.025 0.025 0.100 0.100
0.775 500 0.026 0.103 500 0.026 0.026 0.103 0.103
0.800 500 0.027 0.107 500 0.027 0.027 0.107 0.107
0.825 500 0.028 0.110 500 0.028 0.028 0.110 0.110
0.850 500 0.028 0.113 500 0.028 0.028 0.113 0.113
0.875 500 0.029 0.117 500 0.029 0.029 0.117 0.117
0.900 500 0.030 0.120 500 0.030 0.030 0.120 0.120
0.925 500 0.031 0.123 500 0.031 0.031 0.123 0.123
0.950 500 0.032 0.127 500 0.032 0.032 0.127 0.127
0.975 500 0.033 0.130 500 0.033 0.033 0.130 0.130
1.000 500 0.033 0.133 500 0.033 0.033 0.133 0.133
1.025 500 0.034 0.137 500 0.034 0.034 0.137 0.137
1.050 500 0.035 0.140 500 0.035 0.035 0.140 0.140
1.075 500 0.036 0.143 500 0.036 0.036 0.143 0.143
1.100 500 0.037 0.147 500 0.037 0.037 0.147 0.147
1.125 500 0.037 0.150 500 0.037 0.037 0.150 0.150
1.150 500 0.038 0.153 500 0.038 0.038 0.153 0.153
1.175 500 0.039 0.157 500 0.039 0.039 0.157 0.157
1.200 500 0.040 0.160 500 0.040 0.040 0.160 0.160
1.225 500 0.041 0.163 500 0.041 0.041 0.163 0.163
1.250 500 0.042 0.167 500 0.042 0.042 0.167 0.167
1.275 500 0.043 0.170 500 0.043 0.043 0.170 0.170
1.300 500 0.043 0.173 500 0.043 0.043 0.173 0.173
1.325 500 0.044 0.177 500 0.044 0.044 0.177 0.177
1.350 500 0.045 0.180 500 0.045 0.045 0.180 0.180
1.375 500 0.046 0.183 500 0.046 0.046 0.183 0.183
1.400 500 0.047 0.187 500 0.047 0.047 0.187 0.187
1.425 500 0.048 0.190 500 0.048 0.048 0.190 0.190
1.450 500 0.048 0.193 500 0.048 0.048 0.193 0.193
1.475 500 0.049 0.197 500 0.049 0.049 0.197 0.197
1.500 500 0.050 0.200 500 0.050 0.050 0.200 0.200
1.525 500 0.051 0.203 500 0.051 0.051 0.203 0.203
1.550 500 0.052 0.207 500 0.052 0.052 0.207 0.207
1.575 500 0.052 0.210 500 0.052 0.052 0.210 0.210
1.600 500 0.053 0.213 500 0.053 0.053 0.213 0.213
1.625 500 0.054 0.217 500 0.054 0.054 0.217 0.217
1.650 500 0.055 0.220 500 0.055 0.055 0.220 0.220
1.675 500 0.056 0.223 500 0.056 0.056 0.223 0.223
1.700 500 0.057 0.227 500 0.057 0.057 0.227 0.227
1.725 500 0.058 0.230 500 0.058 0.058 0.230 0.230
1.750 500 0.058 0.233 500 0.058 0.058 0.233 0.233
1.775 500 0.059 0.237 500 0.059 0.059 0.237 0.237
1.800 500 0.060 0.240 500 0.060 0.060 0.240 0.240
1.825 500 0.061 0.243 500 0.061 0.061 0.243 0.243
1.850 500 0.062 0.247 500 0.062 0.062 0.247 0.247
1.875 500 0.062 0.250 500 0.062 0.062 0.250 0.250
1.900 500 0.063 0.253 500 0.063 0.063 0.253 0.253
1.925 500 0.064 0.257 500 0.064 0.064 0.257 0.257
1.950 500 0.065 0.260 500 0.065 0.065 0.260 0.260
1.975 500 0.066 0.263 500 0.066 0.066 0.263 0.263
2.000 500 0.067 0.267 500 0.067 0.067 0.267 0.267
2.025 500 0.068 0.270 500 0.068 0.068 0.270 0.270
2.050 500 0.068 0.273 500 0.068 0.068 0.273 0.273
2.075 500 0.069 0.277 500 0.069 0.069 0.277 0.277
2.100 500 0.070 0.280 500 0.070 0.070 0.280 0.280
2.125 500 0.071 0.283 500 0.071 0.071 0.283 0.283
2.150 500 0.072 0.287 500 0.072 0.072 0.287 0.287
2.175 500 0.072 0.290 500 0.072 0.072 0.290 0.290
2.200 500 0.073 0.293 500 0.073 0.073 0.293 0.293
2.225 500 0.074 0.297 500 0.074 0.074 0.297 0.297
2.250 500 0.075 0.300 500 0.075 0.075 0.300 0.300
2.275 500 0.076 0.303 500 0.076 0.076 0.303 0.303
2.300 500 0.077 0.307 500 0.077 0.077 0.307 0.307
2.325 500 0.077 0.310 500 0.077 0.077 0.310 0.310
2.350 500 0.078 0.313 500 0.078 0.078 0.313 0.313
2.375 500 0.079 0.317 500 0.079 0.079 0.317 0.317
2.400 500 0.080 0.320 500 0.080 0.080 0.320 0.320
2.425 500 0.081 0.323 500 0.081 0.081 0.323 0.323
2.450 500 0.082 0.327 500 0.082 0.082 0.327 0.327
2.475 500 0.083 0.330 500 0.083 0.083 0.330 0.330
2.500 500 0.083 0.333 500 0.083 0.083 0.333 0.333
2.525 500 0.084 0.337 500 0.084 0.084 0.337 0.337
2.550 500 0.085 0.340 500 0.085 0.085 0.340 0.340
2.575 500 0.086 0.343 500 0.086 0.086 0.343 0.343
2.600 500 0.087 0.347 500 0.087 0.087 0.347 0.347
2.625 500 0.087 0.350 500 0.087 0.087 0.350 0.350
2.650 500 0.088 0.353 500 0.088 0.088 0.353 0.353
2.675 500 0.089 0.357 500 0.089 0.089 0.357 0.357
2.700 500 0.090 0.360 500 0.090 0.090 0.360 0.360
2.725 500 0.091 0.363 500 0.091 0.091 0.363 0.363
2.750 500 0.092 0.367 500 0.092 0.092 0.367 0.367
2.775 500 0.092 0.370 500 0.092 0.092 0.370 0.370
2.800 500 0.093 0.373 500 0.093 0.093 0.373 0.373
2.825 500 0.094 0.377 500 0.094 0.094 0.377 0.377
2.850 500 0.095 0.380 500 0.095 0.095 0.380 0.380
2.875 500 0.096 0.383 500 0.096 0.096 0.383 0.383
2.900 500 0.097 0.387 500 0.097 0.097 0.387 0.387
2.925 500 0.098 0.390 500 0.098 0.098 0.390 0.390
2.950 500 0.098 0.393 500 0.098 0.098 0.393 0.393
2.975 500 0.099 0.397 500 0.099 0.099 0.397 0.397
3.000 500 0.100 0.400 500 0.100 0.100 0.400 0.400
3.025 500 0.101 0.403 500 0.101 0.101 0.403 0.403
3.050 500 0.102 0.407 500 0.102 0.102 0.407 0.407
3.075 500 0.102 0.410 500 0.102 0.102 0.410 0.410
3.100 500 0.103 0.413 500 0.103 0.103 0.413 0.413
3.125 500 0.104 0.417 500 0.104 0.104 0.417 0.417
3.150 500 0.105 0.420 500 0.105 0.105 0.420 0.420
3.175 500 0.106 0.423 500 0.106 0.106 0.423 0.423
3.200 500 0.107 0.427 500 0.107 0.107 0.427 0.427
3.225 500 0.107 0.430 500 0.107 0.107 0.430 0.430
3.250 500 0.108 0.433 500 0.108 0.108 0.433 0.433
3.275 500 0.109 0.437 500 0.109 0.109 0.437 0.437
3.300 500 0.110 0.440 500 0.110 0.110 0.440 0.440
3.325 500 0.111 0.443 500 0.111 0.111 0.443 0.443
3.350 500 0.112 0.447 500 0.112 0.112 0.447 0.447
3.375 500 0.113 0.450 500 0.113 0.113 0.450 0.450
3.400 500 0.113 0.453 500 0.113 0.113 0.453 0.453
3.425 500 0.114 0.457 500 0.114 0.114 0.457 0.457
3.450 500 0.115 0.460 500 0.115 0.115 0.460 0.460
3.475 500 0.116 0.463 500 0.116 0.116 0.463 0.463
3.500 500 0.117 0.467 500 0.117 0.117 0.467 0.467
3.525 500 0.117 0.470 500 0.117 0.117 0.470 0.470
3.550 500 0.118 0.473 500 0.118 0.118 0.473 0.473
3.575 500 0.119 0.477 500 0.119 0.119 0.477 0.477
3.600 500 0.120 0.480 500 0.120 0.120 0.480 0.480
3.625 500 0.121 0.483 500 0.121 0.121 0.483 0.483
3.650 500 0.122 0.487 500 0.122 0.122 0.487 0.487
3.675 500 0.122 0.490 500 0.122 0.122 0.490 0.490
3.700 500 0.123 0.493 500 0.123 0.123 0.493 0.493
3.725 500 0.124 0.497 500 0.124 0.124 0.497 0.497
3.750 500 0.125 0.500 500 0.125 0.125 0.500 0.500
3.775 500 0.126 0.503 500 0.126 0.126 0.503 0.503
3.800 500 0.127 0.507 500 0.127 0.127 0.507 0.507
3.825 500 0.128 0.510 500 0.128 0.128 0.510 0.510
3.850 500 0.128 0.513 500 0.128 0.128 0.513 0.513
3.875 500 0.129 0.517 500 0.129 0.129 0.517 0.517
3.900 500 0.130 0.520 500 0.130 0.130 0.520 0.520
3.925 500 0.131 0.523 500 0.131 0.131 0.523 0.523
3.950 500 0.132 0.527 500 0.132 0.132 0.527 0.527
3.975 500 0.133 0.530 500 0.133 0.133 0.530 0.530
4.000 500 0.133 0.533 500 0.133 0.133 0.533 0.533
4.025 500 0.134 0.537 500 0.134 0.134 0.537 0.537
4.050 500 0.135 0.540 500 0.135 0.135 0.540 0.540
4.075 500 0.136 0.543 500 0.136 0.136 0.543 0.543
4.100 500 0.137 0.547 500 0.137 0.137 0.547 0.547
4.125 500 0.138 0.550 500 0.138 0.138 0.550 0.550
4.150 500 0.138 0.553 500 0.138 0.138 0.553 0.553
4.175 500 0.139 0.557 500 0.139 0.139 0.557 0.557
4.200 500 0.140 0.560 500 0.140 0.140 0.560 0.560
4.225 500 0.141 0.563 500 0.141 0.141 0.563 0.563
4.250 500 0.142 0.567 500 0.142 0.142 0.567 0.567
4.275 500 0.142 0.570 500 0.142 0.142 0.570 0.570
4.300 500 0.143 0.573 500 0.143 0.143 0.573 0.573
4.325 500 0.144 0.577 500 0.144 0.144 0.577 0.577
4.350 500 0.145 0.580 500 0.145 0.145 0.580 0.580
4.375 500 0.146 0.583 500 0.146 0.146 0.583 0.583
4.400 500 0.147 0.587 500 0.147 0.147 0.587 0.587
4.425 500 0.147 0.590 500 0.147 0.147 0.590 0.590
4.450 500 0.148 0.593 500 0.148 0.148 0.593 0.593
4.475 500 0.149 0.597 500 0.149 0.149 0.597 0.597
4.500 500 0.150 0.600 500 0.150 0.150 0.600 0.600
4.525 500 0.151 0.603 500 0.151 0.151 0.603 0.603
4.550 600 0.152 0.506 600 0.152 0.152 0.506 0.506
4.575 600 0.152 0.508 600 0.152 0.152 0.508 0.508
4.600 600 0.153 0.511 600 0.153 0.153 0.511 0.511
4.625 600 0.154 0.514 600 0.154 0.154 0.514 0.514
4.650 600 0.155 0.517 600 0.155 0.155 0.517 0.517
4.675 600 0.156 0.519 600 0.156 0.156 0.519 0.519
4.700 600 0.157 0.522 600 0.157 0.157 0.522 0.522
4.725 600 0.158 0.525 600 0.158 0.158 0.525 0.525
4.750 600 0.158 0.528 600 0.158 0.158 0.528 0.528
4.775 600 0.159 0.531 600 0.159 0.159 0.531 0.531
4.800 600 0.160 0.533 600 0.160 0.160 0.533 0.533
4.825 600 0.161 0.536 600 0.161 0.161 0.536 0.536
4.850 600 0.162 0.539 600 0.162 0.162 0.539 0.539
4.875 600 0.163 0.542 600 0.163 0.163 0.542 0.542
4.900 600 0.163 0.544 600 0.163 0.163 0.544 0.544
4.925 600 0.164 0.547 600 0.164 0.164 0.547 0.547
4.950 600 0.165 0.550 600 0.165 0.165 0.550 0.550
4.975 600 0.166 0.553 600 0.166 0.166 0.553 0.553
5.000 600 0.167 0.556 600 0.167 0.167 0.556 0.556
5.025 600 0.168 0.558 600 0.168 0.168 0.558 0.558
5.050 800 0.168 0.421 800 0.168 0.168 0.421 0.421
5.075 800 0.169 0.423 800 0.169 0.169 0.423 0.423
5.100 800 0.170 0.425 800 0.170 0.170 0.425 0.425
5.125 800 0.171 0.427 800 0.171 0.171 0.427 0.427
5.150 800 0.172 0.429 800 0.172 0.172 0.429 0.429
5.175 800 0.172 0.431 800 0.172 0.172 0.431 0.431
5.200 800 0.173 0.433 800 0.173 0.173 0.433 0.433
5.225 800 0.174 0.435 800 0.174 0.174 0.435 0.435
5.250 800 0.175 0.438 800 0.175 0.175 0.438 0.438
5.275 800 0.176 0.440 800 0.176 0.176 0.440 0.440
5.300 800 0.177 0.442 800 0.177 0.177 0.442 0.442
5.325 800 0.177 0.444 800 0.177 0.177 0.444 0.444
5.350 800 0.178 0.446 800 0.178 0.178 0.446 0.446
5.375 800 0.179 0.448 800 0.179 0.179 0.448 0.448
5.400 800 0.180 0.450 800 0.180 0.180 0.450 0.450
5.425 800 0.181 0.452 800 0.181 0.181 0.452 0.452
5.450 800 0.182 0.454 800 0.182 0.182 0.454 0.454
5.475 800 0.182 0.456 800 0.182 0.182 0.456 0.456
5.500 800 0.183 0.458 800 0.183 0.183 0.458 0.458
5.525 800 0.184 0.460 800 0.184 0.184 0.460 0.460
5.550 1100 0.185 0.336 1100 0.185 0.185 0.336 0.336
5.575 1100 0.186 0.338 1100 0.186 0.186 0.338 0.338
5.600 1100 0.187 0.339 1100 0.187 0.187 0.339 0.339
5.625 1100 0.188 0.341 1100 0.188 0.188 0.341 0.341
5.650 1100 0.188 0.342 1100 0.188 0.188 0.342 0.342
5.675 1100 0.189 0.344 1100 0.189 0.189 0.344 0.344
5.700 1100 0.190 0.345 1100 0.190 0.190 0.345 0.345
5.725 1100 0.191 0.347 1100 0.191 0.191 0.347 0.347
5.750 1100 0.192 0.348 1100 0.192 0.192 0.348 0.348
5.775 1100 0.193 0.350 1100 0.193 0.193 0.350 0.350
5.800 1100 0.193 0.352 1100 0.193 0.193 0.352 0.352
5.825 1100 0.194 0.353 1100 0.194 0.194 0.353 0.353
5.850 1100 0.195 0.355 1100 0.195 0.195 0.355 0.355
5.875 1100 0.196 0.356 1100 0.196 0.196 0.356 0.356
5.900 1100 0.197 0.358 1100 0.197 0.197 0.358 0.358
5.925 1100 0.198 0.359 1100 0.198 0.198 0.359 0.359
5.950 1100 0.198 0.361 1100 0.198 0.198 0.361 0.361
5.975 1100 0.199 0.362 1100 0.199 0.199 0.362 0.362
6.000 1100 0.200 0.364 1100 0.200 0.200 0.364 0.364
6.025 1100 0.201 0.365 1100 0.201 0.201 0.365 0.365
6.050 1300 0.202 0.310 1300 0.202 0.202 0.310 0.310
6.075 1300 0.203 0.312 1300 0.203 0.203 0.312 0.312
6.100 1300 0.203 0.313 1300 0.203 0.203 0.313 0.313
6.125 1300 0.204 0.314 1300 0.204 0.204 0.314 0.314
6.150 1300 0.205 0.315 1300 0.205 0.205 0.315 0.315
6.175 1300 0.206 0.317 1300 0.206 0.206 0.317 0.317
6.200 1300 0.207 0.318 1300 0.207 0.207 0.318 0.318
6.225 1300 0.207 0.319 1300 0.207 0.207 0.319 0.319
6.250 1300 0.208 0.321 1300 0.208 0.208 0.321 0.321
6.275 1300 0.209 0.322 1300 0.209 0.209 0.322 0.322
6.300 1300 0.210 0.323 1300 0.210 0.210 0.323 0.323
6.325 1300 0.211 0.324 1300 0.211 0.211 0.324 0.324
6.350 1300 0.212 0.326 1300 0.212 0.212 0.326 0.326
6.375 1300 0.212 0.327 1300 0.212 0.212 0.327 0.327
6.400 1300 0.213 0.328 1300 0.213 0.213 0.328 0.328
6.425 1300 0.214 0.329 1300 0.214 0.214 0.329 0.329
6.450 1300 0.215 0.331 1300 0.215 0.215 0.331 0.331
6.475 1300 0.216 0.332 1300 0.216 0.216 0.332 0.332
6.500 1300 0.217 0.333 1300 0.217 0.217 0.333 0.333
6.525 1300 0.217 0.335 1300 0.217 0.217 0.335 0.335
6.550 1400 0.218 0.312 1400 0.218 0.218 0.312 0.312
6.575 1400 0.219 0.313 1400 0.219 0.219 0.313 0.313
6.600 1400 0.220 0.314 1400 0.220 0.220 0.314 0.314
6.625 1400 0.221 0.315 1400 0.221 0.221 0.315 0.315
6.650 1400 0.222 0.317 1400 0.222 0.222 0.317 0.317
6.675 1400 0.223 0.318 1400 0.223 0.223 0.318 0.318
6.700 1400 0.223 0.319 1400 0.223 0.223 0.319 0.319
6.725 1400 0.224 0.320 1400 0.224 0.224 0.320 0.320
6.750 1400 0.225 0.321 1400 0.225 0.225 0.321 0.321
6.775 1400 0.226 0.323 1400 0.226 0.226 0.323 0.323
6.800 1400 0.227 0.324 1400 0.227 0.227 0.324 0.324
6.825 1400 0.228 0.325 1400 0.228 0.228 0.325 0.325
6.850 1400 0.228 0.326 1400 0.228 0.228 0.326 0.326
6.875 1400 0.229 0.327 1400 0.229 0.229 0.327 0.327
6.900 1400 0.230 0.329 1400 0.230 0.230 0.329 0.329
6.925 1400 0.231 0.330 1400 0.231 0.231 0.330 0.330
6.950 1400 0.232 0.331 1400 0.232 0.232 0.331 0.331
6.975 1400 0.233 0.332 1400 0.233 0.233 0.332 0.332
7.000 1400 0.233 0.333 1400 0.233 0.233 0.333 0.333
7.025 1400 0.234 0.335 1400 0.234 0.234 0.335 0.335
7.050 1300 0.235 0.362 1300 0.235 0.235 0.362 0.362
7.075 1300 0.236 0.363 1300 0.236 0.236 0.363 0.363
7.100 1300 0.237 0.364 1300 0.237 0.237 0.364 0.364
7.125 1300 0.237 0.365 1300 0.237 0.237 0.365 0.365
7.150 1300 0.238 0.367 1300 0.238 0.238 0.367 0.367
7.175 1300 0.239 0.368 1300 0.239 0.239 0.368 0.368
7.200 1300 0.240 0.369 1300 0.240 0.240 0.369 0.369
7.225 1300 0.241 0.371 1300 0.241 0.241 0.371 0.371
7.250 1300 0.242 0.372 1300 0.242 0.242 0.372 0.372
7.275 1300 0.242 0.373 1300 0.242 0.242 0.373 0.373
7.300 1300 0.243 0.374 1300 0.243 0.243 0.374 0.374
7.325 1300 0.244 0.376 1300 0.244 0.244 0.376 0.376
7.350 1300 0.245 0.377 1300 0.245 0.245 0.377 0.377
7.375 1300 0.246 0.378 1300 0.246 0.246 0.378 0.378
7.400 1300 0.247 0.379 1300 0.247 0.247 0.379 0.379
7.425 1300 0.247 0.381 1300 0.247 0.247 0.381 0.381
7.450 1300 0.248 0.382 1300 0.248 0.248 0.382 0.382
7.475 1300 0.249 0.383 1300 0.249 0.249 0.383 0.383
7.500 1300 0.250 0.385 1300 0.250 0.250 0.385 0.385
7.525 1300 0.251 0.386 1300 0.251 0.251 0.386 0.386
7.550 1200 0.252 0.419 1200 0.252 0.252 0.419 0.419
7.575 1200 0.253 0.421 1200 0.253 0.253 0.421 0.421
7.600 1200 0.253 0.422 1200 0.253 0.253 0.422 0.422
7.625 1200 0.254 0.424 1200 0.254 0.254 0.424 0.424
7.650 1200 0.255 0.425 1200 0.255 0.255 0.425 0.425
7.675 1200 0.256 0.426 1200 0.256 0.256 0.426 0.426
7.700 1200 0.257 0.428 1200 0.257 0.257 0.428 0.428
7.725 1200 0.258 0.429 1200 0.258 0.258 0.429 0.429
7.750 1200 0.258 0.431 1200 0.258 0.258 0.431 0.431
7.775 1200 0.259 0.432 1200 0.259 0.259 0.432 0.432
7.800 1200 0.260 0.433 1200 0.260 0.260 0.433 0.433
7.825 1200 0.261 0.435 1200 0.261 0.261 0.435 0.435
7.850 1200 0.262 0.436 1200 0.262 0.262 0.436 0.436
7.875 1200 0.263 0.438 1200 0.263 0.263 0.438 0.438
7.900 1200 0.263 0.439 1200 0.263 0.263 0.439 0.439
7.925 1200 0.264 0.440 1200 0.264 0.264 0.440 0.440
7.950 1200 0.265 0.442 1200 0.265 0.265 0.442 0.442
7.975 1200 0.266 0.443 1200 0.266 0.266 0.443 0.443
8.000 1200 0.267 0.444 1200 0.267 0.267 0.444 0.444
8.025 1200 0.268 0.446 1200 0.268 0.268 0.446 0.446
8.050 1200 0.268 0.447 1200 0.268 0.268 0.447 0.447
8.075 1200 0.269 0.449 1200 0.269 0.269 0.449 0.449
8.100 1200 0.270 0.450 1200 0.270 0.270 0.450 0.450
8.125 1200 0.271 0.451 1200 0.271 0.271 0.451 0.451
8.150 1200 0.272 0.453 1200 0.272 0.272 0.453 0.453
8.175 1200 0.273 0.454 1200 0.273 0.273 0.454 0.454
8.200 1200 0.273 0.456 1200 0.273 0.273 0.456 0.456
8.225 1200 0.274 0.457 1200 0.274 0.274 0.457 0.457
8.250 1200 0.275 0.458 1200 0.275 0.275 0.458 0.458
8.275 1200 0.276 0.460 1200 0.276 0.276 0.460 0.460
8.300 1200 0.277 0.461 1200 0.277 0.277 0.461 0.461
8.325 1200 0.278 0.463 1200 0.278 0.278 0.463 0.463
8.350 1200 0.278 0.464 1200 0.278 0.278 0.464 0.464
8.375 1200 0.279 0.465 1200 0.279 0.279 0.465 0.465
8.400 1200 0.280 0.467 1200 0.280 0.280 0.467 0.467
8.425 1200 0.281 0.468 1200 0.281 0.281 0.468 0.468
8.450 1200 0.282 0.469 1200 0.282 0.282 0.469 0.469
8.475 1200 0.282 0.471 1200 0.282 0.282 0.471 0.471
8.500 1200 0.283 0.472 1200 0.283 0.283 0.472 0.472
8.525 1200 0.284 0.474 1200 0.284 0.284 0.474 0.474
8.550 1300 0.285 0.438 1300 0.285 0.285 0.438 0.438
8.575 1300 0.286 0.440 1300 0.286 0.286 0.440 0.440
8.600 1300 0.287 0.441 1300 0.287 0.287 0.441 0.441
8.625 1300 0.287 0.442 1300 0.287 0.287 0.442 0.442
8.650 1300 0.288 0.444 1300 0.288 0.288 0.444 0.444
8.675 1300 0.289 0.445 1300 0.289 0.289 0.445 0.445
8.700 1300 0.290 0.446 1300 0.290 0.290 0.446 0.446
8.725 1300 0.291 0.447 1300 0.291 0.291 0.447 0.447
8.750 1300 0.292 0.449 1300 0.292 0.292 0.449 0.449
8.775 1300 0.292 0.450 1300 0.292 0.292 0.450 0.450
8.800 1300 0.293 0.451 1300 0.293 0.293 0.451 0.451
8.825 1300 0.294 0.453 1300 0.294 0.294 0.453 0.453
8.850 1300 0.295 0.454 1300 0.295 0.295 0.454 0.454
8.875 1300 0.296 0.455 1300 0.296 0.296 0.455 0.455
8.900 1300 0.297 0.456 1300 0.297 0.297 0.456 0.456
8.925 1300 0.297 0.458 1300 0.297 0.297 0.458 0.458
8.950 1300 0.298 0.459 1300 0.298 0.298 0.459 0.459
8.975 1300 0.299 0.460 1300 0.299 0.299 0.460 0.460
9.000 1300 0.300 0.462 1300 0.300 0.300 0.462 0.462
9.025 1300 0.301 0.463 1300 0.301 0.301 0.463 0.463
9.050 1500 0.302 0.402 1500 0.302 0.302 0.402 0.402
9.075 1500 0.302 0.403 1500 0.302 0.302 0.403 0.403
9.100 1500 0.303 0.404 1500 0.303 0.303 0.404 0.404
9.125 1500 0.304 0.406 1500 0.304 0.304 0.406 0.406
9.150 1500 0.305 0.407 1500 0.305 0.305 0.407 0.407
9.175 1500 0.306 0.408 1500 0.306 0.306 0.408 0.408
9.200 1500 0.307 0.409 1500 0.307 0.307 0.409 0.409
9.225 1500 0.307 0.410 1500 0.307 0.307 0.410 0.410
9.250 1500 0.308 0.411 1500 0.308 0.308 0.411 0.411
9.275 1500 0.309 0.412 1500 0.309 0.309 0.412 0.412
9.300 1500 0.310 0.413 1500 0.310 0.310 0.413 0.413
9.325 1500 0.311 0.414 1500 0.311 0.311 0.414 0.414
9.350 1500 0.312 0.416 1500 0.312 0.312 0.416 0.416
9.375 1500 0.312 0.417 1500 0.312 0.312 0.417 0.417
9.400 1500 0.313 0.418 1500 0.313 0.313 0.418 0.418
9.425 1500 0.314 0.419 1500 0.314 0.314 0.419 0.419
9.450 1500 0.315 0.420 1500 0.315 0.315 0.420 0.420
9.475 1500 0.316 0.421 1500 0.316 0.316 0.421 0.421
9.500 1500 0.317 0.422 1500 0.317 0.317 0.422 0.422
9.525 1500 0.318 0.423 1500 0.318 0.318 0.423 0.423
9.550 1700 0.318 0.375 1700 0.318 0.318 0.375 0.375
9.575 1700 0.319 0.375 1700 0.319 0.319 0.375 0.375
9.600 1700 0.320 0.376 1700 0.320 0.320 0.376 0.376
9.625 1700 0.321 0.377 1700 0.321 0.321 0.377 0.377
9.650 1700 0.322 0.378 1700 0.322 0.322 0.378 0.378
9.675 1700 0.323 0.379 1700 0.323 0.323 0.379 0.379
9.700 1700 0.323 0.380 1700 0.323 0.323 0.380 0.380
9.725 1700 0.324 0.381 1700 0.324 0.324 0.381 0.381
9.750 1700 0.325 0.382 1700 0.325 0.325 0.382 0.382
9.775 1700 0.326 0.383 1700 0.326 0.326 0.383 0.383
9.800 1700 0.327 0.384 1700 0.327 0.327 0.384 0.384
9.825 1700 0.328 0.385 1700 0.328 0.328 0.385 0.385
9.850 1700 0.328 0.386 1700 0.328 0.328 0.386 0.386
9.875 1700 0.329 0.387 1700 0.329 0.329 0.387 0.387
9.900 1700 0.330 0.388 1700 0.330 0.330 0.388 0.388
9.925 1700 0.331 0.389 1700 0.331 0.331 0.389 0.389
9.950 1700 0.332 0.390 1700 0.332 0.332 0.390 0.390
9.975 1700 0.333 0.391 1700 0.333 0.333 0.391 0.391
10.000 1700 0.333 0.392 1700 0.333 0.333 0.392 0.392
10.025 1700 0.334 0.393 1700 0.334 0.334 0.393 0.393
10.050 1900 0.335 0.353 1900 0.335 0.335 0.353 0.353
10.075 1900 0.336 0.354 1900 0.336 0.336 0.354 0.354
10.100 1900 0.337 0.354 1900 0.337 0.337 0.354 0.354
10.125 1900 0.338 0.355 1900 0.338 0.338 0.355 0.355
10.150 1900 0.338 0.356 1900 0.338 0.338 0.356 0.356
10.175 1900 0.339 0.357 1900 0.339 0.339 0.357 0.357
10.200 1900 0.340 0.358 1900 0.340 0.340 0.358 0.358
10.225 1900 0.341 0.359 1900 0.341 0.341 0.359 0.359
10.250 1900 0.342 0.360 1900 0.342 0.342 0.360 0.360
10.275 1900 0.343 0.361 1900 0.343 0.343 0.361 0.361
10.300 1900 0.343 0.361 1900 0.343 0.343 0.361 0.361
10.325 1900 0.344 0.362 1900 0.344 0.344 0.362 0.362
10.350 1900 0.345 0.363 1900 0.345 0.345 0.363 0.363
10.375 1900 0.346 0.364 1900 0.346 0.346 0.364 0.364
10.400 1900 0.347 0.365 1900 0.347 0.347 0.365 0.365
10.425 1900 0.347 0.366 1900 0.347 0.347 0.366 0.366
10.450 1900 0.348 0.367 1900 0.348 0.348 0.367 0.367
10.475 1900 0.349 0.368 1900 0.349 0.349 0.368 0.368
10.500 1900 0.350 0.368 1900 0.350 0.350 0.368 0.368
10.525 1900 0.351 0.369 1900 0.351 0.351 0.369 0.369
10.550 2000 0.352 0.352 2000 0.352 0.352 0.352 0.352
10.575 2000 0.352 0.352 2000 0.352 0.352 0.352 0.352
10.600 2000 0.353 0.353 2000 0.353 0.353 0.353 0.353
10.625 2000 0.354 0.354 2000 0.354 0.354 0.354 0.354
10.650 2000 0.355 0.355 2000 0.355 0.355 0.355 0.355
10.675 2000 0.356 0.356 2000 0.356 0.356 0.356 0.356
10.700 2000 0.357 0.357 2000 0.357 0.357 0.357 0.357
10.725 2000 0.357 0.357 2000 0.357 0.357 0.357 0.357
10.750 2000 0.358 0.358 2000 0.358 0.358 0.358 0.358
10.775 2000 0.359 0.359 2000 0.359 0.359 0.359 0.359
10.800 2000 0.360 0.360 2000 0.360 0.360 0.360 0.360
10.825 2000 0.361 0.361 2000 0.361 0.361 0.361 0.361
10.850 2000 0.362 0.362 2000 0.362 0.362 0.362 0.362
10.875 2000 0.362 0.362 2000 0.362 0.362 0.362 0.362
10.900 2000 0.363 0.363 2000 0.363 0.363 0.363 0.363
10.925 2000 0.364 0.364 2000 0.364 0.364 0.364 0.364
10.950 2000 0.365 0.365 2000 0.365 0.365 0.365 0.365
10.975 2000 0.366 0.366 2000 0.366 0.366 0.366 0.366
11.000 2000 0.367 0.367 2000 0.367 0.367 0.367 0.367
11.025 2000 0.367 0.367 2000 0.367 0.367 0.367 0.367
11.050 2000 0.368 0.368 2000 0.368 0.368 0.368 0.368
11.075 2000 0.369 0.369 2000 0.369 0.369 0.369 0.369
11.100 2000 0.370 0.370 2000 0.370 0.370 0.370 0.370
11.125 2000 0.371 0.371 2000 0.371 0.371 0.371 0.371
11.150 2000 0.372 0.372 2000 0.372 0.372 0.372 0.372
11.175 2000 0.372 0.372 2000 0.372 0.372 0.372 0.372
11.200 2000 0.373 0.373 2000 0.373 0.373 0.373 0.373
11.225 2000 0.374 0.374 2000 0.374 0.374 0.374 0.374
11.250 2000 0.375 0.375 2000 0.375 0.375 0.375 0.375
11.275 2000 0.376 0.376 2000 0.376 0.376 0.376 0.376
11.300 2000 0.377 0.377 2000 0.377 0.377 0.377 0.377
11.325 2000 0.378 0.378 2000 0.378 0.378 0.378 0.378
11.350 2000 0.378 0.378 2000 0.378 0.378 0.378 0.378
11.375 2000 0.379 0.379 2000 0.379 0.379 0.379 0.379
11.400 2000 0.380 0.380 2000 0.380 0.380 0.380 0.380
11.425 2000 0.381 0.381 2000 0.381 0.381 0.381 0.381
11.450 2000 0.382 0.382 2000 0.382 0.382 0.382 0.382
11.475 2000 0.383 0.383 2000 0.383 0.383 0.383 0.383
11.500 2000 0.383 0.383 2000 0.383 0.383 0.383 0.383
11.525 2000 0.384 0.384 2000 0.384 0.384 0.384 0.384
11.550 2000 0.385 0.385 2000 0.385 0.385 0.385 0.385
11.575 2000 0.386 0.386 2000 0.386 0.386 0.386 0.386
11.600 2000 0.387 0.387 2000 0.387 0.387 0.387 0.387
11.625 2000 0.388 0.388 2000 0.388 0.388 0.388 0.388
11.650 2000 0.388 0.388 2000 0.388 0.388 0.388 0.388
11.675 2000 0.389 0.389 2000 0.389 0.389 0.389 0.389
11.700 2000 0.390 0.390 2000 0.390 0.390 0.390 0.390
11.725 2000 0.391 0.391 2000 0.391 0.391 0.391 0.391
11.750 2000 0.392 0.392 2000 0.392 0.392 0.392 0.392
11.775 2000 0.393 0.393 2000 0.393 0.393 0.393 0.393
11.800 2000 0.393 0.393 2000 0.393 0.393 0.393 0.393
11.825 2000 0.394 0.394 2000 0.394 0.394 0.394 0.394
11.850 2000 0.395 0.395 2000 0.395 0.395 0.395 0.395
11.875 2000 0.396 0.396 2000 0.396 0.396 0.396 0.396
11.900 2000 0.397 0.397 2000 0.397 0.397 0.397 0.397
11.925 2000 0.398 0.398 2000 0.398 0.398 0.398 0.398
11.950 2000 0.398 0.398 2000 0.398 0.398 0.398 0.398
11.975 2000 0.399 0.399 2000 0.399 0.399 0.399 0.399
12.000 2000 0.400 0.400 2000 0.400 0.400 0.400 0.400
12.025 2000 0.401 0.401 2000 0.401 0.401 0.401 0.401
12.050 2000 0.402 0.402 2000 0.402 0.402 0.402 0.402
12.075 2000 0.403 0.403 2000 0.403 0.403 0.403 0.403
12.100 2000 0.403 0.403 2000 0.403 0.403 0.403 0.403
12.125 2000 0.404 0.404 2000 0.404 0.404 0.404 0.404
12.150 2000 0.405 0.405 2000 0.405 0.405 0.405 0.405
12.175 2000 0.406 0.406 2000 0.406 0.406 0.406 0.406
12.200 2000 0.407 0.407 2000 0.407 0.407 0.407 0.407
12.225 2000 0.407 0.407 2000 0.407 0.407 0.407 0.407
12.250 2000 0.408 0.408 2000 0.408 0.408 0.408 0.408
12.275 2000 0.409 0.409 2000 0.409 0.409 0.409 0.409
12.300 2000 0.410 0.410 2000 0.410 0.410 0.410 0.410
12.325 2000 0.411 0.411 2000 0.411 0.411 0.411 0.411
12.350 2000 0.412 0.412 2000 0.412 0.412 0.412 0.412
12.375 2000 0.412 0.412 2000 0.412 0.412 0.412 0.412
12.400 2000 0.413 0.413 2000 0.413 0.413 0.413 0.413
12.425 2000 0.414 0.414 2000 0.414 0.414 0.414 0.414
12.450 2000 0.415 0.415 2000 0.415 0.415 0.415 0.415
12.475 2000 0.416 0.416 2000 0.416 0.416 0.416 0.416
12.500 2000 0.417 0.417 2000 0.417 0.417 0.417 0.417
12.525 2000 0.417 0.417 2000 0.417 0.417 0.417 0.417
12.550 2000 0.418 0.418 2000 0.418 0.418 0.418 0.418
12.575 2000 0.419 0.419 2000 0.419 0.419 0.419 0.419
12.600 2000 0.420 0.420 2000 0.420 0.420 0.420 0.420
12.625 2000 0.421 0.421 2000 0.421 0.421 0.421 0.421
12.650 2000 0.422 0.422 2000 0.422 0.422 0.422 0.422
12.675 2000 0.422 0.422 2000 0.422 0.422 0.422 0.422
12.700 2000 0.423 0.423 2000 0.423 0.423 0.423 0.423
12.725 2000 0.424 0.424 2000 0.424 0.424 0.424 0.424
12.750 2000 0.425 0.425 2000 0.425 0.425 0.425 0.425
12.775 2000 0.426 0.426 2000 0.426 0.426 0.426 0.426
12.800 2000 0.427 0.427 2000 0.427 0.427 0.427 0.427
12.825 2000 0.427 0.427 2000 0.427 0.427 0.427 0.427
12.850 2000 0.428 0.428 2000 0.428 0.428 0.428 0.428
12.875 2000 0.429 0.429 2000 0.429 0.429 0.429 0.429
12.900 2000 0.430 0.430 2000 0.430 0.430 0.430 0.430
12.925 2000 0.431 0.431 2000 0.431 0.431 0.431 0.431
12.950 2000 0.432 0.432 2000 0.432 0.432 0.432 0.432
12.975 2000 0.432 0.432 2000 0.432 0.432 0.432 0.432
13.000 2000 0.433 0.433 2000 0.433 0.433 0.433 0.433
13.025 2000 0.434 0.434 2000 0.434 0.434 0.434 0.434
13.050 2000 0.435 0.435 2000 0.435 0.435 0.435 0.435
13.075 2000 0.436 0.436 2000 0.436 0.436 0.436 0.436
13.100 2000 0.437 0.437 2000 0.437 0.437 0.437 0.437
13.125 2000 0.438 0.438 2000 0.438 0.438 0.438 0.438
13.150 2000 0.438 0.438 2000 0.438 0.438 0.438 0.438
13.175 2000 0.439 0.439 2000 0.439 0.439 0.439 0.439
13.200 2000 0.440 0.440 2000 0.440 0.440 0.440 0.440
13.225 2000 0.441 0.441 2000 0.441 0.441 0.441 0.441
13.250 2000 0.442 0.442 2000 0.442 0.442 0.442 0.442
13.275 2000 0.443 0.443 2000 0.443 0.443 0.443 0.443
13.300 2000 0.443 0.443 2000 0.443 0.443 0.443 0.443
13.325 2000 0.444 0.444 2000 0.444 0.444 0.444 0.444
13.350 2000 0.445 0.445 2000 0.445 0.445 0.445 0.445
13.375 2000 0.446 0.446 2000 0.446 0.446 0.446 0.446
13.400 2000 0.447 0.447 2000 0.447 0.447 0.447 0.447
13.425 2000 0.448 0.448 2000 0.448 0.448 0.448 0.448
13.450 2000 0.448 0.448 2000 0.448 0.448 0.448 0.448
13.475 2000 0.449 0.449 2000 0.449 0.449 0.449 0.449
13.500 2000 0.450 0.450 2000 0.450 0.450 0.450 0.450
13.525 2000 0.451 0.451 2000 0.451 0.451 0.451 0.451
13.550 2000 0.452 0.452 2000 0.452 0.452 0.452 0.452
13.575 2000 0.453 0.453 2000 0.453 0.453 0.453 0.453
13.600 2000 0.453 0.453 2000 0.453 0.453 0.453 0.453
13.625 2000 0.454 0.454 2000 0.454 0.454 0.454 0.454
13.650 2000 0.455 0.455 2000 0.455 0.455 0.455 0.455
13.675 2000 0.456 0.456 2000 0.456 0.456 0.456 0.456
13.700 2000 0.457 0.457 2000 0.457 0.457 0.457 0.457
13.725 2000 0.458 0.458 2000 0.458 0.458 0.458 0.458
13.750 2000 0.458 0.458 2000 0.458 0.458 0.458 0.458
13.775 2000 0.459 0.459 2000 0.459 0.459 0.459 0.459
13.800 2000 0.460 0.460 2000 0.460 0.460 0.460 0.460
13.825 2000 0.461 0.461 2000 0.461 0.461 0.461 0.461
13.850 2000 0.462 0.462 2000 0.462 0.462 0.462 0.462
13.875 2000 0.463 0.463 2000 0.463 0.463 0.463 0.463
13.900 2000 0.463 0.463 2000 0.463 0.463 0.463 0.463
13.925 2000 0.464 0.464 2000 0.464 0.464 0.464 0.464
13.950 2000 0.465 0.465 2000 0.465 0.465 0.465 0.465
13.975 2000 0.466 0.466 2000 0.466 0.466 0.466 0.466
14.000 2000 0.467 0.467 2000 0.467 0.467 0.467 0.467
14.025 2000 0.468 0.468 2000 0.468 0.468 0.468 0.468
14.050 2000 0.468 0.468 2000 0.468 0.468 0.468 0.468
14.075 2000 0.469 0.469 2000 0.469 0.469 0.469 0.469
14.100 2000 0.470 0.470 2000 0.470 0.470 0.470 0.470
14.125 2000 0.471 0.471 2000 0.471 0.471 0.471 0.471
14.150 2000 0.472 0.472 2000 0.472 0.472 0.472 0.472
14.175 2000 0.472 0.472 2000 0.472 0.472 0.472 0.472
14.200 2000 0.473 0.473 2000 0.473 0.473 0.473 0.473
14.225 2000 0.474 0.474 2000 0.474 0.474 0.474 0.474
14.250 2000 0.475 0.475 2000 0.475 0.475 0.475 0.475
14.275 2000 0.476 0.476 2000 0.476 0.476 0.476 0.476
14.300 2000 0.477 0.477 2000 0.477 0.477 0.477 0.477
14.325 2000 0.477 0.477 2000 0.477 0.477 0.477 0.477
14.350 2000 0.478 0.478 2000 0.478 0.478 0.478 0.478
14.375 2000 0.479 0.479 2000 0.479 0.479 0.479 0.479
14.400 2000 0.480 0.480 2000 0.480 0.480 0.480 0.480
14.425 2000 0.481 0.481 2000 0.481 0.481 0.481 0.481
14.450 2000 0.482 0.482 2000 0.482 0.482 0.482 0.482
14.475 2000 0.482 0.482 2000 0.482 0.482 0.482 0.482
14.500 2000 0.483 0.483 2000 0.483 0.483 0.483 0.483
14.525 2000 0.484 0.484 2000 0.484 0.484 0.484 0.484
14.550 2000 0.485 0.485 2000 0.485 0.485 0.485 0.485
14.575 2000 0.486 0.486 2000 0.486 0.486 0.486 0.486
14.600 2000 0.487 0.487 2000 0.487 0.487 0.487 0.487
14.625 2000 0.487 0.487 2000 0.487 0.487 0.487 0.487
14.650 2000 0.488 0.488 2000 0.488 0.488 0.488 0.488
14.675 2000 0.489 0.489 2000 0.489 0.489 0.489 0.489
14.700 2000 0.490 0.490 2000 0.490 0.490 0.490 0.490
14.725 2000 0.491 0.491 2000 0.491 0.491 0.491 0.491
14.750 2000 0.492 0.492 2000 0.492 0.492 0.492 0.492
14.775 2000 0.492 0.492 2000 0.492 0.492 0.492 0.492
14.800 2000 0.493 0.493 2000 0.493 0.493 0.493 0.493
14.825 2000 0.494 0.494 2000 0.494 0.494 0.494 0.494
14.850 2000 0.495 0.495 2000 0.495 0.495 0.495 0.495
14.875 2000 0.496 0.496 2000 0.496 0.496 0.496 0.496
14.900 2000 0.497 0.497 2000 0.497 0.497 0.497 0.497
14.925 2000 0.497 0.497 2000 0.497 0.497 0.497 0.497
14.950 2000 0.498 0.498 2000 0.498 0.498 0.498 0.498
14.975 2000 0.499 0.499 2000 0.499 0.499 0.499 0.499
15.000 2000 0.500 0.500 2000 0.500 0.500 0.500 0.500
15.025 2000 0.501 0.501 2000 0.501 0.501 0.501 0.501
15.050 2000 0.502 0.502 2000 0.502 0.502 0.502 0.502
15.075 2000 0.502 0.502 2000 0.502 0.502 0.502 0.502
15.100 2000 0.503 0.503 2000 0.503 0.503 0.503 0.503
15.125 2000 0.504 0.504 2000 0.504 0.504 0.504 0.504
15.150 2000 0.505 0.505 2000 0.505 0.505 0.505 0.505
15.175 2000 0.506 0.506 2000 0.506 0.506 0.506 0.506
15.200 2000 0.507 0.507 2000 0.507 0.507 0.507 0.507
15.225 2000 0.507 0.507 2000 0.507 0.507 0.507 0.507
15.250 2000 0.508 0.508 2000 0.508 0.508 0.508 0.508
15.275 2000 0.509 0.509 2000 0.509 0.509 0.509 0.509
15.300 2000 0.510 0.510 2000 0.510 0.510 0.510 0.510
15.325 2000 0.511 0.511 2000 0.511 0.511 0.511 0.511
15.350 2000 0.512 0.512 2000 0.512 0.512 0.512 0.512
15.375 2000 0.512 0.512 2000 0.512 0.512 0.512 0.512
15.400 2000 0.513 0.513 2000 0.513 0.513 0.513 0.513
15.425 2000 0.514 0.514 2000 0.514 0.514 0.514 0.514
15.450 2000 0.515 0.515 2000 0.515 0.515 0.515 0.515
15.475 2000 0.516 0.516 2000 0.516 0.516 0.516 0.516
15.500 2000 0.517 0.517 2000 0.517 0.517 0.517 0.517
15.525 2000 0.517 0.517 2000 0.517 0.517 0.517 0.517
15.550 2000 0.518 0.518 2000 0.518 0.518 0.518 0.518
15.575 2000 0.519 0.519 2000 0.519 0.519 0.519 0.519
15.600 2000 0.520 0.520 2000 0.520 0.520 0.520 0.520
15.625 2000 0.521 0.521 2000 0.521 0.521 0.521 0.521
15.650 2000 0.522 0.522 2000 0.522 0.522 0.522 0.522
15.675 2000 0.522 0.522 2000 0.522 0.522 0.522 0.522
15.700 2000 0.523 0.523 2000 0.523 0.523 0.523 0.523
15.725 2000 0.524 0.524 2000 0.524 0.524 0.524 0.524
15.750 2000 0.525 0.525 2000 0.525 0.525 0.525 0.525
15.775 2000 0.526 0.526 2000 0.526 0.526 0.526 0.526
15.800 2000 0.527 0.527 2000 0.527 0.527 0.527 0.527
15.825 2000 0.527 0.527 2000 0.527 0.527 0.527 0.527
15.850 2000 0.528 0.528 2000 0.528 0.528 0.528 0.528
15.875 2000 0.529 0.529 2000 0.529 0.529 0.529 0.529
15.900 2000 0.530 0.530 2000 0.530 0.530 0.530 0.530
15.925 2000 0.531 0.531 2000 0.531 0.531 0.531 0.531
15.950 2000 0.532 0.532 2000 0.532 0.532 0.532 0.532
15.975 2000 0.532 0.532 2000 0.532 0.532 0.532 0.532
16.000 2000 0.533 0.533 2000 0.533 0.533 0.533 0.533
16.025 2000 0.534 0.534 2000 0.534 0.534 0.534 0.534
16.050 2000 0.535 0.535 2000 0.535 0.535 0.535 0.535
16.075 2000 0.536 0.536 2000 0.536 0.536 0.536 0.536
16.100 2000 0.537 0.537 2000 0.537 0.537 0.537 0.537
16.125 2000 0.537 0.537 2000 0.537 0.537 0.537 0.537
16.150 2000 0.538 0.538 2000 0.538 0.538 0.538 0.538
16.175 2000 0.539 0.539 2000 0.539 0.539 0.539 0.539
16.200 2000 0.540 0.540 2000 0.540 0.540 0.540 0.540
16.225 2000 0.541 0.541 2000 0.541 0.541 0.541 0.541
16.250 2000 0.542 0.542 2000 0.542 0.542 0.542 0.542
16.275 2000 0.542 0.542 2000 0.542 0.542 0.542 0.542
16.300 2000 0.543 0.543 2000 0.543 0.543 0.543 0.543
16.325 2000 0.544 0.544 2000 0.544 0.544 0.544 0.544
16.350 2000 0.545 0.545 2000 0.545 0.545 0.545 0.545
16.375 2000 0.546 0.546 2000 0.546 0.546 0.546 0.546
16.400 2000 0.547 0.547 2000 0.547 0.547 0.547 0.547
16.425 2000 0.547 0.547 2000 0.547 0.547 0.547 0.547
16.450 2000 0.548 0.548 2000 0.548 0.548 0.548 0.548
16.475 2000 0.549 0.549 2000 0.549 0.549 0.549 0.549
16.500 2000 0.550 0.550 2000 0.550 0.550 0.550 0.550
16.525 2000 0.551 0.551 2000 0.551 0.551 0.551 0.551
16.550 2000 0.552 0.552 2000 0.552 0.552 0.552 0.552
16.575 2000 0.552 0.552 2000 0.552 0.552 0.552 0.552
16.600 2000 0.553 0.553 2000 0.553 0.553 0.553 0.553
16.625 2000 0.554 0.554 2000 0.554 0.554 0.554 0.554
16.650 2000 0.555 0.555 2000 0.555 0.555 0.555 0.555
16.675 2000 0.556 0.556 2000 0.556 0.556 0.556 0.556
16.700 2000 0.557 0.557 2000 0.557 0.557 0.557 0.557
16.725 2000 0.557 0.557 2000 0.557 0.557 0.557 0.557
16.750 2000 0.558 0.558 2000 0.558 0.558 0.558 0.558
16.775 2000 0.559 0.559 2000 0.559 0.559 0.559 0.559
16.800 2000 0.560 0.560 2000 0.560 0.560 0.560 0.560
16.825 2000 0.561 0.561 2000 0.561 0.561 0.561 0.561
16.850 2000 0.562 0.562 2000 0.562 0.562 0.562 0.562
16.875 2000 0.562 0.562 2000 0.562 0.562 0.562 0.562
16.900 2000 0.563 0.563 2000 0.563 0.563 0.563 0.563
16.925 2000 0.564 0.564 2000 0.564 0.564 0.564 0.564
16.950 2000 0.565 0.565 2000 0.565 0.565 0.565 0.565
16.975 2000 0.566 0.566 2000 0.566 0.566 0.566 0.566
17.000 2000 0.567 0.567 2000 0.567 0.567 0.567 0.567
17.025 2000 0.568 0.568 2000 0.568 0.568 0.568 0.568
17.050 2000 0.568 0.568 2000 0.568 0.568 0.568 0.568
17.075 2000 0.569 0.569 2000 0.569 0.569 0.569 0.569
17.100 2000 0.570 0.570 2000 0.570 0.570 0.570 0.570
17.125 2000 0.571 0.571 2000 0.571 0.571 0.571 0.571
17.150 2000 0.572 0.572 2000 0.572 0.572 0.572 0.572
17.175 2000 0.573 0.573 2000 0.573 0.573 0.573 0.573
17.200 2000 0.573 0.573 2000 0.573 0.573 0.573 0.573
17.225 2000 0.574 0.574 2000 0.574 0.574 0.574 0.574
17.250 2000 0.575 0.575 2000 0.575 0.575 0.575 0.575
17.275 2000 0.576 0.576 2000 0.576 0.576 0.576 0.576
17.300 2000 0.577 0.577 2000 0.577 0.577 0.577 0.577
17.325 2000 0.578 0.578 2000 0.578 0.578 0.578 0.578
17.350 2000 0.578 0.578 2000 0.578 0.578 0.578 0.578
17.375 2000 0.579 0.579 2000 0.579 0.579 0.579 0.579
17.400 2000 0.580 0.580 2000 0.580 0.580 0.580 0.580
17.425 2000 0.581 0.581 2000 0.581 0.581 0.581 0.581
17.450 2000 0.582 0.582 2000 0.582 0.582 0.582 0.582
17.475 2000 0.583 0.583 2000 0.583 0.583 0.583 0.583
17.500 2000 0.583 0.583 2000 0.583 0.583 0.583 0.583
17.525 2000 0.584 0.584 2000 0.584 0.584 0.584 0.584
17.550 2000 0.585 0.585 2000 0.585 0.585 0.585 0.585
17.575 2000 0.586 0.586 2000 0.586 0.586 0.586 0.586
17.600 2000 0.587 0.587 2000 0.587 0.587 0.587 0.587
17.625 2000 0.588 0.588 2000 0.588 0.588 0.588 0.588
17.650 2000 0.588 0.588 2000 0.588 0.588 0.588 0.588
17.675 2000 0.589 0.589 2000 0.589 0.589 0.589 0.589
17.700 2000 0.590 0.590 2000 0.590 0.590 0.590 0.590
17.725 2000 0.591 0.591 2000 0.591 0.591 0.591 0.591
17.750 2000 0.592 0.592 2000 0.592 0.592 0.592 0.592
17.775 2000 0.593 0.593 2000 0.593 0.593 0.593 0.593
17.800 2000 0.593 0.593 2000 0.593 0.593 0.593 0.593
17.825 2000 0.594 0.594 2000 0.594 0.594 0.594 0.594
17.850 2000 0.595 0.595 2000 0.595 0.595 0.595 0.595
17.875 2000 0.596 0.596 2000 0.596 0.596 0.596 0.596
17.900 2000 0.597 0.597 2000 0.597 0.597 0.597 0.597
17.925 2000 0.598 0.598 2000 0.598 0.598 0.598 0.598
17.950 2000 0.598 0.598 2000 0.598 0.598 0.598 0.598
17.975 2000 0.599 0.599 2000 0.599 0.599 0.599 0.599
18.000 2000 0.600 0.600 2000 0.600 0.600 0.600 0.600
18.025 2000 0.601 0.601 2000 0.601 0.601 0.601 0.601
18.050 2000 0.602 0.602 2000 0.602 0.602 0.602 0.602
18.075 2000 0.603 0.603 2000 0.603 0.603 0.603 0.603
18.100 2000 0.603 0.603 2000 0.603 0.603 0.603 0.603
18.125 2000 0.604 0.604 2000 0.604 0.604 0.604 0.604
18.150 2000 0.605 0.605 2000 0.605 0.605 0.605 0.605
18.175 2000 0.606 0.606 2000 0.606 0.606 0.606 0.606
18.200 2000 0.607 0.607 2000 0.607 0.607 0.607 0.607
18.225 2000 0.608 0.608 2000 0.608 0.608 0.608 0.608
18.250 2000 0.608 0.608 2000 0.608 0.608 0.608 0.608
18.275 2000 0.609 0.609 2000 0.609 0.609 0.609 0.609
18.300 2000 0.610 0.610 2000 0.610 0.610 0.610 0.610
18.325 2000 0.611 0.611 2000 0.611 0.611 0.611 0.611
18.350 2000 0.612 0.612 2000 0.612 0.612 0.612 0.612
18.375 2000 0.613 0.613 2000 0.613 0.613 0.613 0.613
18.400 2000 0.613 0.613 2000 0.613 0.613 0.613 0.613
18.425 2000 0.614 0.614 2000 0.614 0.614 0.614 0.614
18.450 2000 0.615 0.615 2000 0.615 0.615 0.615 0.615
18.475 2000 0.616 0.616 2000 0.616 0.616 0.616 0.616
18.500 2000 0.617 0.617 2000 0.617 0.617 0.617 0.617
18.525 2000 0.618 0.618 2000 0.618 0.618 0.618 0.618
18.550 2000 0.618 0.618 2000 0.618 0.618 0.618 0.618
18.575 2000 0.619 0.619 2000 0.619 0.619 0.619 0.619
18.600 2000 0.620 0.620 2000 0.620 0.620 0.620 0.620
18.625 2000 0.621 0.621 2000 0.621 0.621 0.621 0.621
18.650 2000 0.622 0.622 2000 0.622 0.622 0.622 0.622
18.675 2000 0.623 0.623 2000 0.623 0.623 0.623 0.623
18.700 2000 0.623 0.623 2000 0.623 0.623 0.623 0.623
18.725 2000 0.624 0.624 2000 0.624 0.624 0.624 0.624
18.750 2000 0.625 0.625 2000 0.625 0.625 0.625 0.625
18.775 2000 0.626 0.626 2000 0.626 0.626 0.626 0.626
18.800 2000 0.627 0.627 2000 0.627 0.627 0.627 0.627
18.825 2000 0.627 0.627 2000 0.627 0.627 0.627 0.627
18.850 2000 0.628 0.628 2000 0.628 0.628 0.628 0.628
18.875 2000 0.629 0.629 2000 0.629 0.629 0.629 0.629
18.900 2000 0.630 0.630 2000 0.630 0.630 0.630 0.630
18.925 2000 0.631 0.631 2000 0.631 0.631 0.631 0.631
18.950 2000 0.632 0.632 2000 0.632 0.632 0.632 0.632
18.975 2000 0.632 0.632 2000 0.632 0.632 0.632 0.632
19.000 2000 0.633 0.633 2000 0.633 0.633 0.633 0.633
19.025 2000 0.634 0.634 2000 0.634 0.634 0.634 0.634
19.050 2000 0.635 0.635 2000 0.635 0.635 0.635 0.635
19.075 2000 0.636 0.636 2000 0.636 0.636 0.636 0.636
19.100 2000 0.637 0.637 2000 0.637 0.637 0.637 0.637
19.125 2000 0.637 0.637 2000 0.637 0.637 0.637 0.637
19.150 2000 0.638 0.638 2000 0.638 0.638 0.638 0.638
19.175 2000 0.639 0.639 2000 0.639 0.639 0.639 0.639
19.200 2000 0.640 0.640 2000 0.640 0.640 0.640 0.640
19.225 2000 0.641 0.641 2000 0.641 0.641 0.641 0.641
19.250 2000 0.642 0.642 2000 0.642 0.642 0.642 0.642
19.275 2000 0.642 0.642 2000 0.642 0.642 0.642 0.642
19.300 2000 0.643 0.643 2000 0.643 0.643 0.643 0.643
19.325 2000 0.644 0.644 2000 0.644 0.644 0.644 0.644
19.350 2000 0.645 0.645 2000 0.645 0.645 0.645 0.645
19.375 2000 0.646 0.646 2000 0.646 0.646 0.646 0.646
19.400 2000 0.647 0.647 2000 0.647 0.647 0.647 0.647
19.425 2000 0.647 0.647 2000 0.647 0.647 0.647 0.647
19.450 2000 0.648 0.648 2000 0.648 0.648 0.648 0.648
19.475 2000 0.649 0.649 2000 0.649 0.649 0.649 0.649
19.500 2000 0.650 0.650 2000 0.650 0.650 0.650 0.650
19.525 2000 0.651 0.651 2000 0.651 0.651 0.651 0.651
19.550 2000 0.652 0.652 2000 0.652 0.652 0.652 0.652
19.575 2000 0.652 0.652 2000 0.652 0.652 0.652 0.652
19.600 2000 0.653 0.653 2000 0.653 0.653 0.653 0.653
19.625 2000 0.654 0.654 2000 0.654 0.654 0.654 0.654
19.650 2000 0.655 0.655 2000 0.655 0.655 0.655 0.655
19.675 2000 0.656 0.656 2000 0.656 0.656 0.656 0.656
19.700 2000 0.657 0.657 2000 0.657 0.657 0.657 0.657
19.725 2000 0.657 0.657 2000 0.657 0.657 0.657 0.657
19.750 2000 0.658 0.658 2000 0.658 0.658 0.658 0.658
19.775 2000 0.659 0.659 2000 0.659 0.659 0.659 0.659
19.800 2000 0.660 0.660 2000 0.660 0.660 0.660 0.660
19.825 2000 0.661 0.661 2000 0.661 0.661 0.661 0.661
19.850 2000 0.662 0.662 2000 0.662 0.662 0.662 0.662
19.875 2000 0.662 0.662 2000 0.662 0.662 0.662 0.662
19.900 2000 0.663 0.663 2000 0.663 0.663 0.663 0.663
19.925 2000 0.664 0.664 2000 0.664 0.664 0.664 0.664
19.950 2000 0.665 0.665 2000 0.665 0.665 0.665 0.665
19.975 2000 0.666 0.666 2000 0.666 0.666 0.666 0.666
20.000 2000 0.667 0.667 2000 0.667 0.667 0.667 0.667
20.025 2000 0.667 0.667 2000 0.667 0.667 0.667 0.667
20.050 2000 0.668 0.668 2000 0.668 0.668 0.668 0.668
20.075 2000 0.669 0.669 2000 0.669 0.669 0.669 0.669
20.100 2000 0.670 0.670 2000 0.670 0.670 0.670 0.670
20.125 2000 0.671 0.671 2000 0.671 0.671 0.671 0.671
20.150 2000 0.672 0.672 2000 0.672 0.672 0.672 0.672
20.175 2000 0.672 0.672 2000 0.672 0.672 0.672 0.672
20.200 2000 0.673 0.673 2000 0.673 0.673 0.673 0.673
20.225 2000 0.674 0.674 2000 0.674 0.674 0.674 0.674
20.250 2000 0.675 0.675 2000 0.675 0.675 0.675 0.675
20.275 2000 0.676 0.676 2000 0.676 0.676 0.676 0.676
20.300 2000 0.677 0.677 2000 0.677 0.677 0.677 0.677
20.325 2000 0.677 0.677 2000 0.677 0.677 0.677 0.677
20.350 2000 0.678 0.678 2000 0.678 0.678 0.678 0.678
20.375 2000 0.679 0.679 2000 0.679 0.679 0.679 0.679
20.400 2000 0.680 0.680 2000 0.680 0.680 0.680 0.680
20.425 2000 0.681 0.681 2000 0.681 0.681 0.681 0.681
20.450 2000 0.682 0.682 2000 0.682 0.682 0.682 0.682
20.475 2000 0.682 0.682 2000 0.682 0.682 0.682 0.682
20.500 2000 0.683 0.683 2000 0.683 0.683 0.683 0.683
20.525 2000 0.684 0.684 2000 0.684 0.684 0.684 0.684
20.550 2000 0.685 0.685 2000 0.685 0.685 0.685 0.685
20.575 2000 0.686 0.686 2000 0.686 0.686 0.686 0.686
20.600 2000 0.687 0.687 2000 0.687 0.687 0.687 0.687
20.625 2000 0.688 0.688 2000 0.688 0.688 0.688 0.688
20.650 2000 0.688 0.688 2000 0.688 0.688 0.688 0.688
20.675 2000 0.689 0.689 2000 0.689 0.689 0.689 0.689
20.700 2000 0.690 0.690 2000 0.690 0.690 0.690 0.690
20.725 2000 0.691 0.691 2000 0.691 0.691 0.691 0.691
20.750 2000 0.692 0.692 2000 0.692 0.692 0.692 0.692
20.775 2000 0.693 0.693 2000 0.693 0.693 0.693 0.693
20.800 2000 0.693 0.693 2000 0.693 0.693 0.693 0.693
20.825 2000 0.694 0.694 2000 0.694 0.694 0.694 0.694
20.850 2000 0.695 0.695 2000 0.695 0.695 0.695 0.695
20.875 2000 0.696 0.696 2000 0.696 0.696 0.696 0.696
20.900 2000 0.697 0.697 2000 0.697 0.697 0.697 0.697
20.925 2000 0.698 0.698 2000 0.698 0.698 0.698 0.698
20.950 2000 0.698 0.698 2000 0.698 0.698 0.698 0.698
20.975 2000 0.699 0.699 2000 0.699 0.699 0.699 0.699
21.000 2000 0.700 0.700 2000 0.700 0.700 0.700 0.700
21.025 2000 0.701 0.701 2000 0.701 0.701 0.701 0.701
21.050 2000 0.702 0.702 2000 0.702 0.702 0.702 0.702
21.075 2000 0.703 0.703 2000 0.703 0.703 0.703 0.703
21.100 2000 0.703 0.703 2000 0.703 0.703 0.703 0.703
21.125 2000 0.704 0.704 2000 0.704 0.704 0.704 0.704
21.150 2000 0.705 0.705 2000 0.705 0.705 0.705 0.705
21.175 2000 0.706 0.706 2000 0.706 0.706 0.706 0.706
21.200 2000 0.707 0.707 2000 0.707 0.707 0.707 0.707
21.225 2000 0.708 0.708 2000 0.708 0.708 0.708 0.708
21.250 2000 0.708 0.708 2000 0.708 0.708 0.708 0.708
21.275 2000 0.709 0.709 2000 0.709 0.709 0.709 0.709
21.300 2000 0.710 0.710 2000 0.710 0.710 0.710 0.710
21.325 2000 0.711 0.711 2000 0.711 0.711 0.711 0.711
21.350 2000 0.712 0.712 2000 0.712 0.712 0.712 0.712
21.375 2000 0.713 0.713 2000 0.713 0.713 0.713 0.713
21.400 2000 0.713 0.713 2000 0.713 0.713 0.713 0.713
21.425 2000 0.714 0.714 2000 0.714 0.714 0.714 0.714
21.450 2000 0.715 0.715 2000 0.715 0.715 0.715 0.715
21.475 2000 0.716 0.716 2000 0.716 0.716 0.716 0.716
21.500 2000 0.717 0.717 2000 0.717 0.717 0.717 0.717
21.525 2000 0.718 0.718 2000 0.718 0.718 0.718 0.718
21.550 2000 0.718 0.718 2000 0.718 0.718 0.718 0.718
21.575 2000 0.719 0.719 2000 0.719 0.719 0.719 0.719
21.600 2000 0.720 0.720 2000 0.720 0.720 0.720 0.720
21.625 2000 0.721 0.721 2000 0.721 0.721 0.721 0.721
21.650 2000 0.722 0.722 2000 0.722 0.722 0.722 0.722
21.675 2000 0.723 0.723 2000 0.723 0.723 0.723 0.723
21.700 2000 0.723 0.723 2000 0.723 0.723 0.723 0.723
21.725 2000 0.724 0.724 2000 0.724 0.724 0.724 0.724
21.750 2000 0.725 0.725 2000 0.725 0.725 0.725 0.725
21.775 2000 0.726 0.726 2000 0.726 0.726 0.726 0.726
21.800 2000 0.727 0.727 2000 0.727 0.727 0.727 0.727
21.825 2000 0.728 0.728 2000 0.728 0.728 0.728 0.728
21.850 2000 0.728 0.728 2000 0.728 0.728 0.728 0.728
21.875 2000 0.729 0.729 2000 0.729 0.729 0.729 0.729
21.900 2000 0.730 0.730 2000 0.730 0.730 0.730 0.730
21.925 2000 0.731 0.731 2000 0.731 0.731 0.731 0.731
21.950 2000 0.732 0.732 2000 0.732 0.732 0.732 0.732
21.975 2000 0.733 0.733 2000 0.733 0.733 0.733 0.733
22.000 2000 0.733 0.733 2000 0.733 0.733 0.733 0.733
22.025 2000 0.734 0.734 2000 0.734 0.734 0.734 0.734
22.050 2000 0.735 0.735 2000 0.735 0.735 0.735 0.735
22.075 2000 0.736 0.736 2000 0.736 0.736 0.736 0.736
22.100 2000 0.737 0.737 2000 0.737 0.737 0.737 0.737
22.125 2000 0.738 0.738 2000 0.738 0.738 0.738 0.738
22.150 2000 0.738 0.738 2000 0.738 0.738 0.738 0.738
22.175 2000 0.739 0.739 2000 0.739 0.739 0.739 0.739
22.200 2000 0.740 0.740 2000 0.740 0.740 0.740 0.740
22.225 2000 0.741 0.741 2000 0.741 0.741 0.741 0.741
22.250 2000 0.742 0.742 2000 0.742 0.742 0.742 0.742
22.275 2000 0.743 0.743 2000 0.743 0.743 0.743 0.743
22.300 2000 0.743 0.743 2000 0.743 0.743 0.743 0.743
22.325 2000 0.744 0.744 2000 0.744 0.744 0.744 0.744
22.350 2000 0.745 0.745 2000 0.745 0.745 0.745 0.745
22.375 2000 0.746 0.746 2000 0.746 0.746 0.746 0.746
22.400 2000 0.747 0.747 2000 0.747 0.747 0.747 0.747
22.425 2000 0.748 0.748 2000 0.748 0.748 0.748 0.748
22.450 2000 0.748 0.748 2000 0.748 0.748 0.748 0.748
22.475 2000 0.749 0.749 2000 0.749 0.749 0.749 0.749
22.500 2000 0.750 0.750 2000 0.750 0.750 0.750 0.750
22.525 2000 0.751 0.751 2000 0.751 0.751 0.751 0.751
22.550 2000 0.752 0.752 2000 0.752 0.752 0.752 0.752
22.575 2000 0.752 0.752 2000 0.752 0.752 0.752 0.752
22.600 2000 0.753 0.753 2000 0.753 0.753 0.753 0.753
22.625 2000 0.754 0.754 2000 0.754 0.754 0.754 0.754
22.650 2000 0.755 0.755 2000 0.755 0.755 0.755 0.755
22.675 2000 0.756 0.756 2000 0.756 0.756 0.756 0.756
22.700 2000 0.757 0.757 2000 0.757 0.757 0.757 0.757
22.725 2000 0.757 0.757 2000 0.757 0.757 0.757 0.757
22.750 2000 0.758 0.758 2000 0.758 0.758 0.758 0.758
22.775 2000 0.759 0.759 2000 0.759 0.759 0.759 0.759
22.800 2000 0.760 0.760 2000 0.760 0.760 0.760 0.760
22.825 2000 0.761 0.761 2000 0.761 0.761 0.761 0.761
22.850 2000 0.762 0.762 2000 0.762 0.762 0.762 0.762
22.875 2000 0.762 0.762 2000 0.762 0.762 0.762 0.762
22.900 2000 0.763 0.763 2000 0.763 0.763 0.763 0.763
22.925 2000 0.764 0.764 2000 0.764 0.764 0.764 0.764
22.950 2000 0.765 0.765 2000 0.765 0.765 0.765 0.765
22.975 2000 0.766 0.766 2000 0.766 0.766 0.766 0.766
23.000 2000 0.767 0.767 2000 0.767 0.767 0.767 0.767
23.025 2000 0.767 0.767 2000 0.767 0.767 0.767 0.767
23.050 2000 0.768 0.768 2000 0.768 0.768 0.768 0.768
23.075 2000 0.769 0.769 2000 0.769 0.769 0.769 0.769
23.100 2000 0.770 0.770 2000 0.770 0.770 0.770 0.770
23.125 2000 0.771 0.771 2000 0.771 0.771 0.771 0.771
23.150 2000 0.772 0.772 2000 0.772 0.772 0.772 0.772
23.175 2000 0.772 0.772 2000 0.772 0.772 0.772 0.772
23.200 2000 0.773 0.773 2000 0.773 0.773 0.773 0.773
23.225 2000 0.774 0.774 2000 0.774 0.774 0.774 0.774
23.250 2000 0.775 0.775 2000 0.775 0.775 0.775 0.775
23.275 2000 0.776 0.776 2000 0.776 0.776 0.776 0.776
23.300 2000 0.777 0.777 2000 0.777 0.777 0.777 0.777
23.325 2000 0.777 0.777 2000 0.777 0.777 0.777 0.777
23.350 2000 0.778 0.778 2000 0.778 0.778 0.778 0.778
23.375 2000 0.779 0.779 2000 0.779 0.779 0.779 0.779
23.400 2000 0.780 0.780 2000 0.780 0.780 0.780 0.780
23.425 2000 0.781 0.781 2000 0.781 0.781 0.781 0.781
23.450 2000 0.782 0.782 2000 0.782 0.782 0.782 0.782
23.475 2000 0.782 0.782 2000 0.782 0.782 0.782 0.782
23.500 2000 0.783 0.783 2000 0.783 0.783 0.783 0.783
23.525 2000 0.784 0.784 2000 0.784 0.784 0.784 0.784
23.550 2000 0.785 0.785 2000 0.785 0.785 0.785 0.785
23.575 2000 0.786 0.786 2000 0.786 0.786 0.786 0.786
23.600 2000 0.787 0.787 2000 0.787 0.787 0.787 0.787
23.625 2000 0.787 0.787 2000 0.787 0.787 0.787 0.787
23.650 2000 0.788 0.788 2000 0.788 0.788 0.788 0.788
23.675 2000 0.789 0.789 2000 0.789 0.789 0.789 0.789
23.700 2000 0.790 0.790 2000 0.790 0.790 0.790 0.790
23.725 2000 0.791 0.791 2000 0.791 0.791 0.791 0.791
23.750 2000 0.792 0.792 2000 0.792 0.792 0.792 0.792
23.775 2000 0.792 0.792 2000 0.792 0.792 0.792 0.792
23.800 2000 0.793 0.793 2000 0.793 0.793 0.793 0.793
23.825 2000 0.794 0.794 2000 0.794 0.794 0.794 0.794
23.850 2000 0.795 0.795 2000 0.795 0.795 0.795 0.795
23.875 2000 0.796 0.796 2000 0.796 0.796 0.796 0.796
23.900 2000 0.797 0.797 2000 0.797 0.797 0.797 0.797
23.925 2000 0.797 0.797 2000 0.797 0.797 0.797 0.797
23.950 2000 0.798 0.798 2000 0.798 0.798 0.798 0.798
23.975 2000 0.799 0.799 2000 0.799 0.799 0.799 0.799
24.000 2000 0.800 0.800 2000 0.800 0.800 0.800 0.800
24.025 2000 0.801 0.801 2000 0.801 0.801 0.801 0.801
24.050 2000 0.802 0.802 2000 0.802 0.802 0.802 0.802
24.075 2000 0.802 0.802 2000 0.802 0.802 0.802 0.802
24.100 2000 0.803 0.803 2000 0.803 0.803 0.803 0.803
24.125 2000 0.804 0.804 2000 0.804 0.804 0.804 0.804
24.150 2000 0.805 0.805 2000 0.805 0.805 0.805 0.805
24.175 2000 0.806 0.806 2000 0.806 0.806 0.806 0.806
24.200 2000 0.807 0.807 2000 0.807 0.807 0.807 0.807
24.225 2000 0.807 0.807 2000 0.807 0.807 0.807 0.807
24.250 2000 0.808 0.808 2000 0.808 0.808 0.808 0.808
24.275 2000 0.809 0.809 2000 0.809 0.809 0.809 0.809
24.300 2000 0.810 0.810 2000 0.810 0.810 0.810 0.810
24.325 2000 0.811 0.811 2000 0.811 0.811 0.811 0.811
24.350 2000 0.812 0.812 2000 0.812 0.812 0.812 0.812
24.375 2000 0.812 0.812 2000 0.812 0.812 0.812 0.812
24.400 2000 0.813 0.813 2000 0.813 0.813 0.813 0.813
24.425 2000 0.814 0.814 2000 0.814 0.814 0.814 0.814
24.450 2000 0.815 0.815 2000 0.815 0.815 0.815 0.815
24.475 2000 0.816 0.816 2000 0.816 0.816 0.816 0.816
24.500 2000 0.817 0.817 2000 0.817 0.817 0.817 0.817
24.525 2000 0.818 0.818 2000 0.818 0.818 0.818 0.818
24.550 2000 0.818 0.818 2000 0.818 0.818 0.818 0.818
24.575 2000 0.819 0.819 2000 0.819 0.819 0.819 0.819
24.600 2000 0.820 0.820 2000 0.820 0.820 0.820 0.820
24.625 2000 0.821 0.821 2000 0.821 0.821 0.821 0.821
24.650 2000 0.822 0.822 2000 0.822 0.822 0.822 0.822
24.675 2000 0.823 0.823 2000 0.823 0.823 0.823 0.823
24.700 2000 0.823 0.823 2000 0.823 0.823 0.823 0.823
24.725 2000 0.824 0.824 2000 0.824 0.824 0.824 0.824
24.750 2000 0.825 0.825 2000 0.825 0.825 0.825 0.825
24.775 2000 0.826 0.826 2000 0.826 0.826 0.826 0.826
24.800 2000 0.827 0.827 2000 0.827 0.827 0.827 0.827
24.825 2000 0.828 0.828 2000 0.828 0.828 0.828 0.828
24.850 2000 0.828 0.828 2000 0.828 0.828 0.828 0.828
24.875 2000 0.829 0.829 2000 0.829 0.829 0.829 0.829
24.900 2000 0.830 0.830 2000 0.830 0.830 0.830 0.830
24.925 2000 0.831 0.831 2000 0.831 0.831 0.831 0.831
24.950 2000 0.832 0.832 2000 0.832 0.832 0.832 0.832
24.975 2000 0.833 0.833 2000 0.833 0.833 0.833 0.833
25.000 2000 0.833 0.833 2000 0.833 0.833 0.833 0.833
25.025 2000 0.834 0.834 2000 0.834 0.834 0.834 0.834
25.050 2000 0.835 0.835 2000 0.835 0.835 0.835 0.835
25.075 2000 0.836 0.836 2000 0.836 0.836 0.836 0.836
25.100 2000 0.837 0.837 2000 0.837 0.837 0.837 0.837
25.125 2000 0.838 0.838 2000 0.838 0.838 0.838 0.838
25.150 2000 0.838 0.838 2000 0.838 0.838 0.838 0.838
25.175 2000 0.839 0.839 2000 0.839 0.839 0.839 0.839
25.200 2000 0.840 0.840 2000 0.840 0.840 0.840 0.840
25.225 2000 0.841 0.841 2000 0.841 0.841 0.841 0.841
25.250 2000 0.842 0.842 2000 0.842 0.842 0.842 0.842
25.275 2000 0.843 0.843 2000 0.843 0.843 0.843 0.843
25.300 2000 0.843 0.843 2000 0.843 0.843 0.843 0.843
25.325 2000 0.844 0.844 2000 0.844 0.844 0.844 0.844
25.350 2000 0.845 0.845 2000 0.845 0.845 0.845 0.845
25.375 2000 0.846 0.846 2000 0.846 0.846 0.846 0.846
25.400 2000 0.847 0.847 2000 0.847 0.847 0.847 0.847
25.425 2000 0.848 0.848 2000 0.848 0.848 0.848 0.848
25.450 2000 0.848 0.848 2000 0.848 0.848 0.848 0.848
25.475 2000 0.849 0.849 2000 0.849 0.849 0.849 0.849
25.500 2000 0.850 0.850 2000 0.850 0.850 0.850 0.850
25.525 2000 0.851 0.851 2000 0.851 0.851 0.851 0.851
25.550 2000 0.852 0.852 2000 0.852 0.852 0.852 0.852
25.575 2000 0.853 0.853 2000 0.853 0.853 0.853 0.853
25.600 2000 0.853 0.853 2000 0.853 0.853 0.853 0.853
25.625 2000 0.854 0.854 2000 0.854 0.854 0.854 0.854
25.650 2000 0.855 0.855 2000 0.855 0.855 0.855 0.855
25.675 2000 0.856 0.856 2000 0.856 0.856 0.856 0.856
25.700 2000 0.857 0.857 2000 0.857 0.857 0.857 0.857
25.725 2000 0.858 0.858 2000 0.858 0.858 0.858 0.858
25.750 2000 0.858 0.858 2000 0.858 0.858 0.858 0.858
25.775 2000 0.859 0.859 2000 0.859 0.859 0.859 0.859
25.800 2000 0.860 0.860 2000 0.860 0.860 0.860 0.860
25.825 2000 0.861 0.861 2000 0.861 0.861 0.861 0.861
25.850 2000 0.862 0.862 2000 0.862 0.862 0.862 0.862
25.875 2000 0.863 0.863 2000 0.863 0.863 0.863 0.863
25.900 2000 0.863 0.863 2000 0.863 0.863 0.863 0.863
25.925 2000 0.864 0.864 2000 0.864 0.864 0.864 0.864
25.950 2000 0.865 0.865 2000 0.865 0.865 0.865 0.865
25.975 2000 0.866 0.866 2000 0.866 0.866 0.866 0.866
26.000 2000 0.867 0.867 2000 0.867 0.867 0.867 0.867
26.025 2000 0.868 0.868 2000 0.868 0.868 0.868 0.868
26.050 2000 0.868 0.868 2000 0.868 0.868 0.868 0.868
26.075 2000 0.869 0.869 2000 0.869 0.869 0.869 0.869
26.100 2000 0.870 0.870 2000 0.870 0.870 0.870 0.870
26.125 2000 0.871 0.871 2000 0.871 0.871 0.871 0.871
26.150 2000 0.872 0.872 2000 0.872 0.872 0.872 0.872
26.175 2000 0.873 0.873 2000 0.873 0.873 0.873 0.873
26.200 2000 0.873 0.873 2000 0.873 0.873 0.873 0.873
26.225 2000 0.874 0.874 2000 0.874 0.874 0.874 0.874
26.250 2000 0.875 0.875 2000 0.875 0.875 0.875 0.875
26.275 2000 0.876 0.876 2000 0.876 0.876 0.876 0.876
26.300 2000 0.877 0.877 2000 0.877 0.877 0.877 0.877
26.325 2000 0.877 0.877 2000 0.877 0.877 0.877 0.877
26.350 2000 0.878 0.878 2000 0.878 0.878 0.878 0.878
26.375 2000 0.879 0.879 2000 0.879 0.879 0.879 0.879
26.400 2000 0.880 0.880 2000 0.880 0.880 0.880 0.880
26.425 2000 0.881 0.881 2000 0.881 0.881 0.881 0.881
26.450 2000 0.882 0.882 2000 0.882 0.882 0.882 0.882
26.475 2000 0.882 0.882 2000 0.882 0.882 0.882 0.882
26.500 2000 0.883 0.883 2000 0.883 0.883 0.883 0.883
26.525 2000 0.884 0.884 2000 0.884 0.884 0.884 0.884
26.550 2000 0.885 0.885 2000 0.885 0.885 0.885 0.885
26.575 2000 0.886 0.886 2000 0.886 0.886 0.886 0.886
26.600 2000 0.887 0.887 2000 0.887 0.887 0.887 0.887
26.625 2000 0.887 0.887 2000 0.887 0.887 0.887 0.887
26.650 2000 0.888 0.888 2000 0.888 0.888 0.888 0.888
26.675 2000 0.889 0.889 2000 0.889 0.889 0.889 0.889
26.700 2000 0.890 0.890 2000 0.890 0.890 0.890 0.890
26.725 2000 0.891 0.891 2000 0.891 0.891 0.891 0.891
26.750 2000 0.892 0.892 2000 0.892 0.892 0.892 0.892
26.775 2000 0.892 0.892 2000 0.892 0.892 0.892 0.892
26.800 2000 0.893 0.893 2000 0.893 0.893 0.893 0.893
26.825 2000 0.894 0.894 2000 0.894 0.894 0.894 0.894
26.850 2000 0.895 0.895 2000 0.895 0.895 0.895 0.895
26.875 2000 0.896 0.896 2000 0.896 0.896 0.896 0.896
26.900 2000 0.897 0.897 2000 0.897 0.897 0.897 0.897
26.925 2000 0.897 0.897 2000 0.897 0.897 0.897 0.897
26.950 2000 0.898 0.898 2000 0.898 0.898 0.898 0.898
26.975 2000 0.899 0.899 2000 0.899 0.899 0.899 0.899
27.000 2000 0.900 0.900 2000 0.900 0.900 0.900 0.900
27.025 2000 0.901 0.901 2000 0.901 0.901 0.901 0.901
27.050 2000 0.902 0.902 2000 0.902 0.902 0.902 0.902
27.075 2000 0.902 0.902 2000 0.902 0.902 0.902 0.902
27.100 2000 0.903 0.903 2000 0.903 0.903 0.903 0.903
27.125 2000 0.904 0.904 2000 0.904 0.904 0.904 0.904
27.150 2000 0.905 0.905 2000 0.905 0.905 0.905 0.905
27.175 2000 0.906 0.906 2000 0.906 0.906 0.906 0.906
27.200 2000 0.907 0.907 2000 0.907 0.907 0.907 0.907
27.225 2000 0.907 0.907 2000 0.907 0.907 0.907 0.907
27.250 2000 0.908 0.908 2000 0.908 0.908 0.908 0.908
27.275 2000 0.909 0.909 2000 0.909 0.909 0.909 0.909
27.300 2000 0.910 0.910 2000 0.910 0.910 0.910 0.910
27.325 2000 0.911 0.911 2000 0.911 0.911 0.911 0.911
27.350 2000 0.912 0.912 2000 0.912 0.912 0.912 0.912
27.375 2000 0.912 0.912 2000 0.912 0.912 0.912 0.912
27.400 2000 0.913 0.913 2000 0.913 0.913 0.913 0.913
27.425 2000 0.914 0.914 2000 0.914 0.914 0.914 0.914
27.450 2000 0.915 0.915 2000 0.915 0.915 0.915 0.915
27.475 2000 0.916 0.916 2000 0.916 0.916 0.916 0.916
27.500 2000 0.917 0.917 2000 0.917 0.917 0.917 0.917
27.525 2000 0.917 0.917 2000 0.917 0.917 0.917 0.917
27.550 2000 0.918 0.918 2000 0.918 0.918 0.918 0.918
27.575 2000 0.919 0.919 2000 0.919 0.919 0.919 0.919
27.600 2000 0.920 0.920 2000 0.920 0.920 0.920 0.920
27.625 2000 0.921 0.921 2000 0.921 0.921 0.921 0.921
27.650 2000 0.922 0.922 2000 0.922 0.922 0.922 0.922
27.675 2000 0.922 0.922 2000 0.922 0.922 0.922 0.922
27.700 2000 0.923 0.923 2000 0.923 0.923 0.923 0.923
27.725 2000 0.924 0.924 2000 0.924 0.924 0.924 0.924
27.750 2000 0.925 0.925 2000 0.925 0.925 0.925 0.925
27.775 2000 0.926 0.926 2000 0.926 0.926 0.926 0.926
27.800 2000 0.927 0.927 2000 0.927 0.927 0.927 0.927
27.825 2000 0.927 0.927 2000 0.927 0.927 0.927 0.927
27.850 2000 0.928 0.928 2000 0.928 0.928 0.928 0.928
27.875 2000 0.929 0.929 2000 0.929 0.929 0.929 0.929
27.900 2000 0.930 0.930 2000 0.930 0.930 0.930 0.930
27.925 2000 0.931 0.931 2000 0.931 0.931 0.931 0.931
27.950 2000 0.932 0.932 2000 0.932 0.932 0.932 0.932
27.975 2000 0.932 0.932 2000 0.932 0.932 0.932 0.932
28.000 2000 0.933 0.933 2000 0.933 0.933 0.933 0.933
28.025 2000 0.934 0.934 2000 0.934 0.934 0.934 0.934
28.050 2000 0.935 0.935 2000 0.935 0.935 0.935 0.935
28.075 2000 0.936 0.936 2000 0.936 0.936 0.936 0.936
28.100 2000 0.937 0.937 2000 0.937 0.937 0.937 0.937
28.125 2000 0.938 0.938 2000 0.938 0.938 0.938 0.938
28.150 2000 0.938 0.938 2000 0.938 0.938 0.938 0.938
28.175 2000 0.939 0.939 2000 0.939 0.939 0.939 0.939
28.200 2000 0.940 0.940 2000 0.940 0.940 0.940 0.940
28.225 2000 0.941 0.941 2000 0.941 0.941 0.941 0.941
28.250 2000 0.942 0.942 2000 0.942 0.942 0.942 0.942
28.275 2000 0.943 0.943 2000 0.943 0.943 0.943 0.943
28.300 2000 0.943 0.943 2000 0.943 0.943 0.943 0.943
28.325 2000 0.944 0.944 2000 0.944 0.944 0.944 0.944
28.350 2000 0.945 0.945 2000 0.945 0.945 0.945 0.945
28.375 2000 0.946 0.946 2000 0.946 0.946 0.946 0.946
28.400 2000 0.947 0.947 2000 0.947 0.947 0.947 0.947
28.425 2000 0.948 0.948 2000 0.948 0.948 0.948 0.948
28.450 2000 0.948 0.948 2000 0.948 0.948 0.948 0.948
28.475 2000 0.949 0.949 2000 0.949 0.949 0.949 0.949
28.500 2000 0.950 0.950 2000 0.950 0.950 0.950 0.950
28.525 2000 0.951 0.951 2000 0.951 0.951 0.951 0.951
28.550 2000 0.952 0.952 2000 0.952 0.952 0.952 0.952
28.575 2000 0.953 0.953 2000 0.953 0.953 0.953 0.953
28.600 2000 0.953 0.953 2000 0.953 0.953 0.953 0.953
28.625 2000 0.954 0.954 2000 0.954 0.954 0.954 0.954
28.650 2000 0.955 0.955 2000 0.955 0.955 0.955 0.955
28.675 2000 0.956 0.956 2000 0.956 0.956 0.956 0.956
28.700 2000 0.957 0.957 2000 0.957 0.957 0.957 0.957
28.725 2000 0.958 0.958 2000 0.958 0.958 0.958 0.958
28.750 2000 0.958 0.958 2000 0.958 0.958 0.958 0.958
28.775 2000 0.959 0.959 2000 0.959 0.959 0.959 0.959
28.800 2000 0.960 0.960 2000 0.960 0.960 0.960 0.960
28.825 2000 0.961 0.961 2000 0.961 0.961 0.961 0.961
28.850 2000 0.962 0.962 2000 0.962 0.962 0.962 0.962
28.875 2000 0.963 0.963 2000 0.963 0.963 0.963 0.963
28.900 2000 0.963 0.963 2000 0.963 0.963 0.963 0.963
28.925 2000 0.964 0.964 2000 0.964 0.964 0.964 0.964
28.950 2000 0.965 0.965 2000 0.965 0.965 0.965 0.965
28.975 2000 0.966 0.966 2000 0.966 0.966 0.966 0.966
29.000 2000 0.967 0.967 2000 0.967 0.967 0.967 0.967
29.025 2000 0.968 0.968 2000 0.968 0.968 0.968 0.968
29.050 2000 0.968 0.968 2000 0.968 0.968 0.968 0.968
29.075 2000 0.969 0.969 2000 0.969 0.969 0.969 0.969
29.100 2000 0.970 0.970 2000 0.970 0.970 0.970 0.970
29.125 2000 0.971 0.971 2000 0.971 0.971 0.971 0.971
29.150 2000 0.972 0.972 2000 0.972 0.972 0.972 0.972
29.175 2000 0.973 0.973 2000 0.973 0.973 0.973 0.973
29.200 2000 0.973 0.973 2000 0.973 0.973 0.973 0.973
29.225 2000 0.974 0.974 2000 0.974 0.974 0.974 0.974
29.250 2000 0.975 0.975 2000 0.975 0.975 0.975 0.975
29.275 2000 0.976 0.976 2000 0.976 0.976 0.976 0.976
29.300 2000 0.977 0.977 2000 0.977 0.977 0.977 0.977
29.325 2000 0.978 0.978 2000 0.978 0.978 0.978 0.978
29.350 2000 0.978 0.978 2000 0.978 0.978 0.978 0.978
29.375 2000 0.979 0.979 2000 0.979 0.979 0.979 0.979
29.400 2000 0.980 0.980 2000 0.980 0.980 0.980 0.980
29.425 2000 0.981 0.981 2000 0.981 0.981 0.981 0.981
29.450 2000 0.982 0.982 2000 0.982 0.982 0.982 0.982
29.475 2000 0.983 0.983 2000 0.983 0.983 0.983 0.983
29.500 2000 0.983 0.983 2000 0.983 0.983 0.983 0.983
29.525 2000 0.984 0.984 2000 0.984 0.984 0.984 0.984
29.550 2000 0.985 0.985 2000 0.985 0.985 0.985 0.985
29.575 2000 0.986 0.986 2000 0.986 0.986 0.986 0.986
29.600 2000 0.987 0.987 2000 0.987 0.987 0.987 0.987
29.625 2000 0.988 0.988 2000 0.988 0.988 0.988 0.988
29.650 2000 0.988 0.988 2000 0.988 0.988 0.988 0.988
29.675 2000 0.989 0.989 2000 0.989 0.989 0.989 0.989
29.700 2000 0.990 0.990 2000 0.990 0.990 0.990 0.990
29.725 2000 0.991 0.991 2000 0.991 0.991 0.991 0.991
29.750 2000 0.992 0.992 2000 0.992 0.992 0.992 0.992
29.775 2000 0.993 0.993 2000 0.993 0.993 0.993 0.993
29.800 2000 0.993 0.993 2000 0.993 0.993 0.993 0.993
29.825 2000 0.994 0.994 2000 0.994 0.994 0.994 0.994
29.850 2000 0.995 0.995 2000 0.995 0.995 0.995 0.995
29.875 2000 0.996 0.996 2000 0.996 0.996 0.996 0.996
29.900 2000 0.997 0.997 2000 0.997 0.997 0.997 0.997
29.925 2000 0.998 0.998 2000 0.998 0.998 0.998 0.998
29.950 2000 0.998 0.998 2000 0.998 0.998 0.998 0.998
29.975 2000 0.999 0.999 2000 0.999 0.999 0.999 0.999
30.000 2000 1.000 1.000 2000 1.000 1.000 1.000 1.000
