time[s] cpu.0.freq[MHz] cpu.0.recload cpu.0.load max(freqs)[MHz] sum(recloads) max(recloads) sum(loads) max(loads)
0.025 2000 0.999 0.999 2000 0.999 0.999 0.999 0.999
0.050 2000 0.998 0.998 2000 0.998 0.998 0.998 0.998
0.075 2000 0.998 0.998 2000 0.998 0.998 0.998 0.998
0.100 2000 0.997 0.997 2000 0.997 0.997 0.997 0.997
0.125 2000 0.996 0.996 2000 0.996 0.996 0.996 0.996
0.150 2000 0.995 0.995 2000 0.995 0.995 0.995 0.995
0.175 2000 0.994 0.994 2000 0.994 0.994 0.994 0.994
0.200 2000 0.993 0.993 2000 0.993 0.993 0.993 0.993
0.225 2000 0.993 0.993 2000 0.993 0.993 0.993 0.993
0.250 2000 0.992 0.992 2000 0.992 0.992 0.992 0.992
0.275 2000 0.991 0.991 2000 0.991 0.991 0.991 0.991
0.300 2000 0.990 0.990 2000 0.990 0.990 0.990 0.990
0.325 2000 0.989 0.989 2000 0.989 0.989 0.989 0.989
0.350 2000 0.988 0.988 2000 0.988 0.988 0.988 0.988
0.375 2000 0.988 0.988 2000 0.988 0.988 0.988 0.988
0.400 2000 0.987 0.987 2000 0.987 0.987 0.987 0.987
0.425 2000 0.986 0.986 2000 0.986 0.986 0.986 0.986
0.450 2000 0.985 0.985 2000 0.985 0.985 0.985 0.985
0.475 2000 0.984 0.984 2000 0.984 0.984 0.984 0.984
0.500 2000 0.983 0.983 2000 0.983 0.983 0.983 0.983
0.525 2000 0.983 0.983 2000 0.983 0.983 0.983 0.983
0.550 2000 0.982 0.982 2000 0.982 0.982 0.982 0.982
0.575 2000 0.981 0.981 2000 0.981 0.981 0.981 0.981
0.600 2000 0.980 0.980 2000 0.980 0.980 0.980 0.980
0.625 2000 0.979 0.979 2000 0.979 0.979 0.979 0.979
0.650 2000 0.978 0.978 2000 0.978 0.978 0.978 0.978
0.675 2000 0.978 0.978 2000 0.978 0.978 0.978 0.978
0.700 2000 0.977 0.977 2000 0.977 0.977 0.977 0.977
0.725 2000 0.976 0.976 2000 0.976 0.976 0.976 0.976
0.750 2000 0.975 0.975 2000 0.975 0.975 0.975 0.975
0.775 2000 0.974 0.974 2000 0.974 0.974 0.974 0.974
0.800 2000 0.973 0.973 2000 0.973 0.973 0.973 0.973
0.825 2000 0.973 0.973 2000 0.973 0.973 0.973 0.973
0.850 2000 0.972 0.972 2000 0.972 0.972 0.972 0.972
0.875 2000 0.971 0.971 2000 0.971 0.971 0.971 0.971
0.900 2000 0.970 0.970 2000 0.970 0.970 0.970 0.970
0.925 2000 0.969 0.969 2000 0.969 0.969 0.969 0.969
0.950 2000 0.968 0.968 2000 0.968 0.968 0.968 0.968
0.975 2000 0.968 0.968 2000 0.968 0.968 0.968 0.968
1.000 2000 0.967 0.967 2000 0.967 0.967 0.967 0.967
1.025 2000 0.966 0.966 2000 0.966 0.966 0.966 0.966
1.050 2000 0.965 0.965 2000 0.965 0.965 0.965 0.965
1.075 2000 0.964 0.964 2000 0.964 0.964 0.964 0.964
1.100 2000 0.963 0.963 2000 0.963 0.963 0.963 0.963
1.125 2000 0.963 0.963 2000 0.963 0.963 0.963 0.963
1.150 2000 0.962 0.962 2000 0.962 0.962 0.962 0.962
1.175 2000 0.961 0.961 2000 0.961 0.961 0.961 0.961
1.200 2000 0.960 0.960 2000 0.960 0.960 0.960 0.960
1.225 2000 0.959 0.959 2000 0.959 0.959 0.959 0.959
1.250 2000 0.958 0.958 2000 0.958 0.958 0.958 0.958
1.275 2000 0.958 0.958 2000 0.958 0.958 0.958 0.958
1.300 2000 0.957 0.957 2000 0.957 0.957 0.957 0.957
1.325 2000 0.956 0.956 2000 0.956 0.956 0.956 0.956
1.350 2000 0.955 0.955 2000 0.955 0.955 0.955 0.955
1.375 2000 0.954 0.954 2000 0.954 0.954 0.954 0.954
1.400 2000 0.953 0.953 2000 0.953 0.953 0.953 0.953
1.425 2000 0.953 0.953 2000 0.953 0.953 0.953 0.953
1.450 2000 0.952 0.952 2000 0.952 0.952 0.952 0.952
1.475 2000 0.951 0.951 2000 0.951 0.951 0.951 0.951
1.500 2000 0.950 0.950 2000 0.950 0.950 0.950 0.950
1.525 2000 0.949 0.949 2000 0.949 0.949 0.949 0.949
1.550 2000 0.948 0.948 2000 0.948 0.948 0.948 0.948
1.575 2000 0.948 0.948 2000 0.948 0.948 0.948 0.948
1.600 2000 0.947 0.947 2000 0.947 0.947 0.947 0.947
1.625 2000 0.946 0.946 2000 0.946 0.946 0.946 0.946
1.650 2000 0.945 0.945 2000 0.945 0.945 0.945 0.945
1.675 2000 0.944 0.944 2000 0.944 0.944 0.944 0.944
1.700 2000 0.943 0.943 2000 0.943 0.943 0.943 0.943
1.725 2000 0.943 0.943 2000 0.943 0.943 0.943 0.943
1.750 2000 0.942 0.942 2000 0.942 0.942 0.942 0.942
1.775 2000 0.941 0.941 2000 0.941 0.941 0.941 0.941
1.800 2000 0.940 0.940 2000 0.940 0.940 0.940 0.940
1.825 2000 0.939 0.939 2000 0.939 0.939 0.939 0.939
1.850 2000 0.938 0.938 2000 0.938 0.938 0.938 0.938
1.875 2000 0.938 0.938 2000 0.938 0.938 0.938 0.938
1.900 2000 0.937 0.937 2000 0.937 0.937 0.937 0.937
1.925 2000 0.936 0.936 2000 0.936 0.936 0.936 0.936
1.950 2000 0.935 0.935 2000 0.935 0.935 0.935 0.935
1.975 2000 0.934 0.934 2000 0.934 0.934 0.934 0.934
2.000 2000 0.933 0.933 2000 0.933 0.933 0.933 0.933
2.025 2000 0.932 0.932 2000 0.932 0.932 0.932 0.932
2.050 2000 0.932 0.932 2000 0.932 0.932 0.932 0.932
2.075 2000 0.931 0.931 2000 0.931 0.931 0.931 0.931
2.100 2000 0.930 0.930 2000 0.930 0.930 0.930 0.930
2.125 2000 0.929 0.929 2000 0.929 0.929 0.929 0.929
2.150 2000 0.928 0.928 2000 0.928 0.928 0.928 0.928
2.175 2000 0.927 0.927 2000 0.927 0.927 0.927 0.927
2.200 2000 0.927 0.927 2000 0.927 0.927 0.927 0.927
2.225 2000 0.926 0.926 2000 0.926 0.926 0.926 0.926
2.250 2000 0.925 0.925 2000 0.925 0.925 0.925 0.925
2.275 2000 0.924 0.924 2000 0.924 0.924 0.924 0.924
2.300 2000 0.923 0.923 2000 0.923 0.923 0.923 0.923
2.325 2000 0.922 0.922 2000 0.922 0.922 0.922 0.922
2.350 2000 0.922 0.922 2000 0.922 0.922 0.922 0.922
2.375 2000 0.921 0.921 2000 0.921 0.921 0.921 0.921
2.400 2000 0.920 0.920 2000 0.920 0.920 0.920 0.920
2.425 2000 0.919 0.919 2000 0.919 0.919 0.919 0.919
2.450 2000 0.918 0.918 2000 0.918 0.918 0.918 0.918
2.475 2000 0.917 0.917 2000 0.917 0.917 0.917 0.917
2.500 2000 0.917 0.917 2000 0.917 0.917 0.917 0.917
2.525 2000 0.916 0.916 2000 0.916 0.916 0.916 0.916
2.550 2000 0.915 0.915 2000 0.915 0.915 0.915 0.915
2.575 2000 0.914 0.914 2000 0.914 0.914 0.914 0.914
2.600 2000 0.913 0.913 2000 0.913 0.913 0.913 0.913
2.625 2000 0.912 0.912 2000 0.912 0.912 0.912 0.912
2.650 2000 0.912 0.912 2000 0.912 0.912 0.912 0.912
2.675 2000 0.911 0.911 2000 0.911 0.911 0.911 0.911
2.700 2000 0.910 0.910 2000 0.910 0.910 0.910 0.910
2.725 2000 0.909 0.909 2000 0.909 0.909 0.909 0.909
2.750 2000 0.908 0.908 2000 0.908 0.908 0.908 0.908
2.775 2000 0.907 0.907 2000 0.907 0.907 0.907 0.907
2.800 2000 0.907 0.907 2000 0.907 0.907 0.907 0.907
2.825 2000 0.906 0.906 2000 0.906 0.906 0.906 0.906
2.850 2000 0.905 0.905 2000 0.905 0.905 0.905 0.905
2.875 2000 0.904 0.904 2000 0.904 0.904 0.904 0.904
2.900 2000 0.903 0.903 2000 0.903 0.903 0.903 0.903
2.925 2000 0.902 0.902 2000 0.902 0.902 0.902 0.902
2.950 2000 0.902 0.902 2000 0.902 0.902 0.902 0.902
2.975 2000 0.901 0.901 2000 0.901 0.901 0.901 0.901
3.000 2000 0.900 0.900 2000 0.900 0.900 0.900 0.900
3.025 2000 0.899 0.899 2000 0.899 0.899 0.899 0.899
3.050 2000 0.898 0.898 2000 0.898 0.898 0.898 0.898
3.075 2000 0.897 0.897 2000 0.897 0.897 0.897 0.897
3.100 2000 0.897 0.897 2000 0.897 0.897 0.897 0.897
3.125 2000 0.896 0.896 2000 0.896 0.896 0.896 0.896
3.150 2000 0.895 0.895 2000 0.895 0.895 0.895 0.895
3.175 2000 0.894 0.894 2000 0.894 0.894 0.894 0.894
3.200 2000 0.893 0.893 2000 0.893 0.893 0.893 0.893
3.225 2000 0.892 0.892 2000 0.892 0.892 0.892 0.892
3.250 2000 0.892 0.892 2000 0.892 0.892 0.892 0.892
3.275 2000 0.891 0.891 2000 0.891 0.891 0.891 0.891
3.300 2000 0.890 0.890 2000 0.890 0.890 0.890 0.890
3.325 2000 0.889 0.889 2000 0.889 0.889 0.889 0.889
3.350 2000 0.888 0.888 2000 0.888 0.888 0.888 0.888
3.375 2000 0.887 0.887 2000 0.887 0.887 0.887 0.887
3.400 2000 0.887 0.887 2000 0.887 0.887 0.887 0.887
3.425 2000 0.886 0.886 2000 0.886 0.886 0.886 0.886
3.450 2000 0.885 0.885 2000 0.885 0.885 0.885 0.885
3.475 2000 0.884 0.884 2000 0.884 0.884 0.884 0.884
3.500 2000 0.883 0.883 2000 0.883 0.883 0.883 0.883
3.525 2000 0.882 0.882 2000 0.882 0.882 0.882 0.882
3.550 2000 0.882 0.882 2000 0.882 0.882 0.882 0.882
3.575 2000 0.881 0.881 2000 0.881 0.881 0.881 0.881
3.600 2000 0.880 0.880 2000 0.880 0.880 0.880 0.880
3.625 2000 0.879 0.879 2000 0.879 0.879 0.879 0.879
3.650 2000 0.878 0.878 2000 0.878 0.878 0.878 0.878
3.675 2000 0.877 0.877 2000 0.877 0.877 0.877 0.877
3.700 2000 0.877 0.877 2000 0.877 0.877 0.877 0.877
3.725 2000 0.876 0.876 2000 0.876 0.876 0.876 0.876
3.750 2000 0.875 0.875 2000 0.875 0.875 0.875 0.875
3.775 2000 0.874 0.874 2000 0.874 0.874 0.874 0.874
3.800 2000 0.873 0.873 2000 0.873 0.873 0.873 0.873
3.825 2000 0.873 0.873 2000 0.873 0.873 0.873 0.873
3.850 2000 0.872 0.872 2000 0.872 0.872 0.872 0.872
3.875 2000 0.871 0.871 2000 0.871 0.871 0.871 0.871
3.900 2000 0.870 0.870 2000 0.870 0.870 0.870 0.870
3.925 2000 0.869 0.869 2000 0.869 0.869 0.869 0.869
3.950 2000 0.868 0.868 2000 0.868 0.868 0.868 0.868
3.975 2000 0.868 0.868 2000 0.868 0.868 0.868 0.868
4.000 2000 0.867 0.867 2000 0.867 0.867 0.867 0.867
4.025 2000 0.866 0.866 2000 0.866 0.866 0.866 0.866
4.050 2000 0.865 0.865 2000 0.865 0.865 0.865 0.865
4.075 2000 0.864 0.864 2000 0.864 0.864 0.864 0.864
4.100 2000 0.863 0.863 2000 0.863 0.863 0.863 0.863
4.125 2000 0.863 0.863 2000 0.863 0.863 0.863 0.863
4.150 2000 0.862 0.862 2000 0.862 0.862 0.862 0.862
4.175 2000 0.861 0.861 2000 0.861 0.861 0.861 0.861
4.200 2000 0.860 0.860 2000 0.860 0.860 0.860 0.860
4.225 2000 0.859 0.859 2000 0.859 0.859 0.859 0.859
4.250 2000 0.858 0.858 2000 0.858 0.858 0.858 0.858
4.275 2000 0.858 0.858 2000 0.858 0.858 0.858 0.858
4.300 2000 0.857 0.857 2000 0.857 0.857 0.857 0.857
4.325 2000 0.856 0.856 2000 0.856 0.856 0.856 0.856
4.350 2000 0.855 0.855 2000 0.855 0.855 0.855 0.855
4.375 2000 0.854 0.854 2000 0.854 0.854 0.854 0.854
4.400 2000 0.853 0.853 2000 0.853 0.853 0.853 0.853
4.425 2000 0.853 0.853 2000 0.853 0.853 0.853 0.853
4.450 2000 0.852 0.852 2000 0.852 0.852 0.852 0.852
4.475 2000 0.851 0.851 2000 0.851 0.851 0.851 0.851
4.500 2000 0.850 0.850 2000 0.850 0.850 0.850 0.850
4.525 2000 0.849 0.849 2000 0.849 0.849 0.849 0.849
4.550 2000 0.848 0.848 2000 0.848 0.848 0.848 0.848
4.575 2000 0.848 0.848 2000 0.848 0.848 0.848 0.848
4.600 2000 0.847 0.847 2000 0.847 0.847 0.847 0.847
4.625 2000 0.846 0.846 2000 0.846 0.846 0.846 0.846
4.650 2000 0.845 0.845 2000 0.845 0.845 0.845 0.845
4.675 2000 0.844 0.844 2000 0.844 0.844 0.844 0.844
4.700 2000 0.843 0.843 2000 0.843 0.843 0.843 0.843
4.725 2000 0.843 0.843 2000 0.843 0.843 0.843 0.843
4.750 2000 0.842 0.842 2000 0.842 0.842 0.842 0.842
4.775 2000 0.841 0.841 2000 0.841 0.841 0.841 0.841
4.800 2000 0.840 0.840 2000 0.840 0.840 0.840 0.840
4.825 2000 0.839 0.839 2000 0.839 0.839 0.839 0.839
4.850 2000 0.838 0.838 2000 0.838 0.838 0.838 0.838
4.875 2000 0.838 0.838 2000 0.838 0.838 0.838 0.838
4.900 2000 0.837 0.837 2000 0.837 0.837 0.837 0.837
4.925 2000 0.836 0.836 2000 0.836 0.836 0.836 0.836
4.950 2000 0.835 0.835 2000 0.835 0.835 0.835 0.835
4.975 2000 0.834 0.834 2000 0.834 0.834 0.834 0.834
5.000 2000 0.833 0.833 2000 0.833 0.833 0.833 0.833
5.025 2000 0.833 0.833 2000 0.833 0.833 0.833 0.833
5.050 2000 0.832 0.832 2000 0.832 0.832 0.832 0.832
5.075 2000 0.831 0.831 2000 0.831 0.831 0.831 0.831
5.100 2000 0.830 0.830 2000 0.830 0.830 0.830 0.830
5.125 2000 0.829 0.829 2000 0.829 0.829 0.829 0.829
5.150 2000 0.828 0.828 2000 0.828 0.828 0.828 0.828
5.175 2000 0.828 0.828 2000 0.828 0.828 0.828 0.828
5.200 2000 0.827 0.827 2000 0.827 0.827 0.827 0.827
5.225 2000 0.826 0.826 2000 0.826 0.826 0.826 0.826
5.250 2000 0.825 0.825 2000 0.825 0.825 0.825 0.825
5.275 2000 0.824 0.824 2000 0.824 0.824 0.824 0.824
5.300 2000 0.823 0.823 2000 0.823 0.823 0.823 0.823
5.325 2000 0.823 0.823 2000 0.823 0.823 0.823 0.823
5.350 2000 0.822 0.822 2000 0.822 0.822 0.822 0.822
5.375 2000 0.821 0.821 2000 0.821 0.821 0.821 0.821
5.400 2000 0.820 0.820 2000 0.820 0.820 0.820 0.820
5.425 2000 0.819 0.819 2000 0.819 0.819 0.819 0.819
5.450 2000 0.818 0.818 2000 0.818 0.818 0.818 0.818
5.475 2000 0.818 0.818 2000 0.818 0.818 0.818 0.818
5.500 2000 0.817 0.817 2000 0.817 0.817 0.817 0.817
5.525 2000 0.816 0.816 2000 0.816 0.816 0.816 0.816
5.550 2000 0.815 0.815 2000 0.815 0.815 0.815 0.815
5.575 2000 0.814 0.814 2000 0.814 0.814 0.814 0.814
5.600 2000 0.813 0.813 2000 0.813 0.813 0.813 0.813
5.625 2000 0.812 0.812 2000 0.812 0.812 0.812 0.812
5.650 2000 0.812 0.812 2000 0.812 0.812 0.812 0.812
5.675 2000 0.811 0.811 2000 0.811 0.811 0.811 0.811
5.700 2000 0.810 0.810 2000 0.810 0.810 0.810 0.810
5.725 2000 0.809 0.809 2000 0.809 0.809 0.809 0.809
5.750 2000 0.808 0.808 2000 0.808 0.808 0.808 0.808
5.775 2000 0.807 0.807 2000 0.807 0.807 0.807 0.807
5.800 2000 0.807 0.807 2000 0.807 0.807 0.807 0.807
5.825 2000 0.806 0.806 2000 0.806 0.806 0.806 0.806
5.850 2000 0.805 0.805 2000 0.805 0.805 0.805 0.805
5.875 2000 0.804 0.804 2000 0.804 0.804 0.804 0.804
5.900 2000 0.803 0.803 2000 0.803 0.803 0.803 0.803
5.925 2000 0.802 0.802 2000 0.802 0.802 0.802 0.802
5.950 2000 0.802 0.802 2000 0.802 0.802 0.802 0.802
5.975 2000 0.801 0.801 2000 0.801 0.801 0.801 0.801
6.000 2000 0.800 0.800 2000 0.800 0.800 0.800 0.800
6.025 2000 0.799 0.799 2000 0.799 0.799 0.799 0.799
6.050 2000 0.798 0.798 2000 0.798 0.798 0.798 0.798
6.075 2000 0.797 0.797 2000 0.797 0.797 0.797 0.797
6.100 2000 0.797 0.797 2000 0.797 0.797 0.797 0.797
6.125 2000 0.796 0.796 2000 0.796 0.796 0.796 0.796
6.150 2000 0.795 0.795 2000 0.795 0.795 0.795 0.795
6.175 2000 0.794 0.794 2000 0.794 0.794 0.794 0.794
6.200 2000 0.793 0.793 2000 0.793 0.793 0.793 0.793
6.225 2000 0.792 0.792 2000 0.792 0.792 0.792 0.792
6.250 2000 0.792 0.792 2000 0.792 0.792 0.792 0.792
6.275 2000 0.791 0.791 2000 0.791 0.791 0.791 0.791
6.300 2000 0.790 0.790 2000 0.790 0.790 0.790 0.790
6.325 2000 0.789 0.789 2000 0.789 0.789 0.789 0.789
6.350 2000 0.788 0.788 2000 0.788 0.788 0.788 0.788
6.375 2000 0.787 0.787 2000 0.787 0.787 0.787 0.787
6.400 2000 0.787 0.787 2000 0.787 0.787 0.787 0.787
6.425 2000 0.786 0.786 2000 0.786 0.786 0.786 0.786
6.450 2000 0.785 0.785 2000 0.785 0.785 0.785 0.785
6.475 2000 0.784 0.784 2000 0.784 0.784 0.784 0.784
6.500 2000 0.783 0.783 2000 0.783 0.783 0.783 0.783
6.525 2000 0.782 0.782 2000 0.782 0.782 0.782 0.782
6.550 2000 0.782 0.782 2000 0.782 0.782 0.782 0.782
6.575 2000 0.781 0.781 2000 0.781 0.781 0.781 0.781
6.600 2000 0.780 0.780 2000 0.780 0.780 0.780 0.780
6.625 2000 0.779 0.779 2000 0.779 0.779 0.779 0.779
6.650 2000 0.778 0.778 2000 0.778 0.778 0.778 0.778
6.675 2000 0.777 0.777 2000 0.777 0.777 0.777 0.777
6.700 2000 0.777 0.777 2000 0.777 0.777 0.777 0.777
6.725 2000 0.776 0.776 2000 0.776 0.776 0.776 0.776
6.750 2000 0.775 0.775 2000 0.775 0.775 0.775 0.775
6.775 2000 0.774 0.774 2000 0.774 0.774 0.774 0.774
6.800 2000 0.773 0.773 2000 0.773 0.773 0.773 0.773
6.825 2000 0.772 0.772 2000 0.772 0.772 0.772 0.772
6.850 2000 0.772 0.772 2000 0.772 0.772 0.772 0.772
6.875 2000 0.771 0.771 2000 0.771 0.771 0.771 0.771
6.900 2000 0.770 0.770 2000 0.770 0.770 0.770 0.770
6.925 2000 0.769 0.769 2000 0.769 0.769 0.769 0.769
6.950 2000 0.768 0.768 2000 0.768 0.768 0.768 0.768
6.975 2000 0.767 0.767 2000 0.767 0.767 0.767 0.767
7.000 2000 0.767 0.767 2000 0.767 0.767 0.767 0.767
7.025 2000 0.766 0.766 2000 0.766 0.766 0.766 0.766
7.050 2000 0.765 0.765 2000 0.765 0.765 0.765 0.765
7.075 2000 0.764 0.764 2000 0.764 0.764 0.764 0.764
7.100 2000 0.763 0.763 2000 0.763 0.763 0.763 0.763
7.125 2000 0.762 0.762 2000 0.762 0.762 0.762 0.762
7.150 2000 0.762 0.762 2000 0.762 0.762 0.762 0.762
7.175 2000 0.761 0.761 2000 0.761 0.761 0.761 0.761
7.200 2000 0.760 0.760 2000 0.760 0.760 0.760 0.760
7.225 2000 0.759 0.759 2000 0.759 0.759 0.759 0.759
7.250 2000 0.758 0.758 2000 0.758 0.758 0.758 0.758
7.275 2000 0.757 0.757 2000 0.757 0.757 0.757 0.757
7.300 2000 0.757 0.757 2000 0.757 0.757 0.757 0.757
7.325 2000 0.756 0.756 2000 0.756 0.756 0.756 0.756
7.350 2000 0.755 0.755 2000 0.755 0.755 0.755 0.755
7.375 2000 0.754 0.754 2000 0.754 0.754 0.754 0.754
7.400 2000 0.753 0.753 2000 0.753 0.753 0.753 0.753
7.425 2000 0.752 0.752 2000 0.752 0.752 0.752 0.752
7.450 2000 0.752 0.752 2000 0.752 0.752 0.752 0.752
7.475 2000 0.751 0.751 2000 0.751 0.751 0.751 0.751
7.500 2000 0.750 0.750 2000 0.750 0.750 0.750 0.750
7.525 2000 0.749 0.749 2000 0.749 0.749 0.749 0.749
7.550 2000 0.748 0.748 2000 0.748 0.748 0.748 0.748
7.575 2000 0.748 0.748 2000 0.748 0.748 0.748 0.748
7.600 2000 0.747 0.747 2000 0.747 0.747 0.747 0.747
7.625 2000 0.746 0.746 2000 0.746 0.746 0.746 0.746
7.650 2000 0.745 0.745 2000 0.745 0.745 0.745 0.745
7.675 2000 0.744 0.744 2000 0.744 0.744 0.744 0.744
7.700 2000 0.743 0.743 2000 0.743 0.743 0.743 0.743
7.725 2000 0.743 0.743 2000 0.743 0.743 0.743 0.743
7.750 2000 0.742 0.742 2000 0.742 0.742 0.742 0.742
7.775 2000 0.741 0.741 2000 0.741 0.741 0.741 0.741
7.800 2000 0.740 0.740 2000 0.740 0.740 0.740 0.740
7.825 2000 0.739 0.739 2000 0.739 0.739 0.739 0.739
7.850 2000 0.738 0.738 2000 0.738 0.738 0.738 0.738
7.875 2000 0.738 0.738 2000 0.738 0.738 0.738 0.738
7.900 2000 0.737 0.737 2000 0.737 0.737 0.737 0.737
7.925 2000 0.736 0.736 2000 0.736 0.736 0.736 0.736
7.950 2000 0.735 0.735 2000 0.735 0.735 0.735 0.735
7.975 2000 0.734 0.734 2000 0.734 0.734 0.734 0.734
8.000 2000 0.733 0.733 2000 0.733 0.733 0.733 0.733
8.025 2000 0.733 0.733 2000 0.733 0.733 0.733 0.733
8.050 2000 0.732 0.732 2000 0.732 0.732 0.732 0.732
8.075 2000 0.731 0.731 2000 0.731 0.731 0.731 0.731
8.100 2000 0.730 0.730 2000 0.730 0.730 0.730 0.730
8.125 2000 0.729 0.729 2000 0.729 0.729 0.729 0.729
8.150 2000 0.728 0.728 2000 0.728 0.728 0.728 0.728
8.175 2000 0.728 0.728 2000 0.728 0.728 0.728 0.728
8.200 2000 0.727 0.727 2000 0.727 0.727 0.727 0.727
8.225 2000 0.726 0.726 2000 0.726 0.726 0.726 0.726
8.250 2000 0.725 0.725 2000 0.725 0.725 0.725 0.725
8.275 2000 0.724 0.724 2000 0.724 0.724 0.724 0.724
8.300 2000 0.723 0.723 2000 0.723 0.723 0.723 0.723
8.325 2000 0.723 0.723 2000 0.723 0.723 0.723 0.723
8.350 2000 0.722 0.722 2000 0.722 0.722 0.722 0.722
8.375 2000 0.721 0.721 2000 0.721 0.721 0.721 0.721
8.400 2000 0.720 0.720 2000 0.720 0.720 0.720 0.720
8.425 2000 0.719 0.719 2000 0.719 0.719 0.719 0.719
8.450 2000 0.718 0.718 2000 0.718 0.718 0.718 0.718
8.475 2000 0.718 0.718 2000 0.718 0.718 0.718 0.718
8.500 2000 0.717 0.717 2000 0.717 0.717 0.717 0.717
8.525 2000 0.716 0.716 2000 0.716 0.716 0.716 0.716
8.550 2000 0.715 0.715 2000 0.715 0.715 0.715 0.715
8.575 2000 0.714 0.714 2000 0.714 0.714 0.714 0.714
8.600 2000 0.713 0.713 2000 0.713 0.713 0.713 0.713
8.625 2000 0.713 0.713 2000 0.713 0.713 0.713 0.713
8.650 2000 0.712 0.712 2000 0.712 0.712 0.712 0.712
8.675 2000 0.711 0.711 2000 0.711 0.711 0.711 0.711
8.700 2000 0.710 0.710 2000 0.710 0.710 0.710 0.710
8.725 2000 0.709 0.709 2000 0.709 0.709 0.709 0.709
8.750 2000 0.708 0.708 2000 0.708 0.708 0.708 0.708
8.775 2000 0.708 0.708 2000 0.708 0.708 0.708 0.708
8.800 2000 0.707 0.707 2000 0.707 0.707 0.707 0.707
8.825 2000 0.706 0.706 2000 0.706 0.706 0.706 0.706
8.850 2000 0.705 0.705 2000 0.705 0.705 0.705 0.705
8.875 2000 0.704 0.704 2000 0.704 0.704 0.704 0.704
8.900 2000 0.703 0.703 2000 0.703 0.703 0.703 0.703
8.925 2000 0.703 0.703 2000 0.703 0.703 0.703 0.703
8.950 2000 0.702 0.702 2000 0.702 0.702 0.702 0.702
8.975 2000 0.701 0.701 2000 0.701 0.701 0.701 0.701
9.000 2000 0.700 0.700 2000 0.700 0.700 0.700 0.700
9.025 2000 0.699 0.699 2000 0.699 0.699 0.699 0.699
9.050 2000 0.698 0.698 2000 0.698 0.698 0.698 0.698
9.075 2000 0.698 0.698 2000 0.698 0.698 0.698 0.698
9.100 2000 0.697 0.697 2000 0.697 0.697 0.697 0.697
9.125 2000 0.696 0.696 2000 0.696 0.696 0.696 0.696
9.150 2000 0.695 0.695 2000 0.695 0.695 0.695 0.695
9.175 2000 0.694 0.694 2000 0.694 0.694 0.694 0.694
9.200 2000 0.693 0.693 2000 0.693 0.693 0.693 0.693
9.225 2000 0.693 0.693 2000 0.693 0.693 0.693 0.693
9.250 2000 0.692 0.692 2000 0.692 0.692 0.692 0.692
9.275 2000 0.691 0.691 2000 0.691 0.691 0.691 0.691
9.300 2000 0.690 0.690 2000 0.690 0.690 0.690 0.690
9.325 2000 0.689 0.689 2000 0.689 0.689 0.689 0.689
9.350 2000 0.688 0.688 2000 0.688 0.688 0.688 0.688
9.375 2000 0.688 0.688 2000 0.688 0.688 0.688 0.688
9.400 2000 0.687 0.687 2000 0.687 0.687 0.687 0.687
9.425 2000 0.686 0.686 2000 0.686 0.686 0.686 0.686
9.450 2000 0.685 0.685 2000 0.685 0.685 0.685 0.685
9.475 2000 0.684 0.684 2000 0.684 0.684 0.684 0.684
9.500 2000 0.683 0.683 2000 0.683 0.683 0.683 0.683
9.525 2000 0.682 0.682 2000 0.682 0.682 0.682 0.682
9.550 2000 0.682 0.682 2000 0.682 0.682 0.682 0.682
9.575 2000 0.681 0.681 2000 0.681 0.681 0.681 0.681
9.600 2000 0.680 0.680 2000 0.680 0.680 0.680 0.680
9.625 2000 0.679 0.679 2000 0.679 0.679 0.679 0.679
9.650 2000 0.678 0.678 2000 0.678 0.678 0.678 0.678
9.675 2000 0.677 0.677 2000 0.677 0.677 0.677 0.677
9.700 2000 0.677 0.677 2000 0.677 0.677 0.677 0.677
9.725 2000 0.676 0.676 2000 0.676 0.676 0.676 0.676
9.750 2000 0.675 0.675 2000 0.675 0.675 0.675 0.675
9.775 2000 0.674 0.674 2000 0.674 0.674 0.674 0.674
9.800 2000 0.673 0.673 2000 0.673 0.673 0.673 0.673
9.825 2000 0.672 0.672 2000 0.672 0.672 0.672 0.672
9.850 2000 0.672 0.672 2000 0.672 0.672 0.672 0.672
9.875 2000 0.671 0.671 2000 0.671 0.671 0.671 0.671
9.900 2000 0.670 0.670 2000 0.670 0.670 0.670 0.670
9.925 2000 0.669 0.669 2000 0.669 0.669 0.669 0.669
9.950 2000 0.668 0.668 2000 0.668 0.668 0.668 0.668
9.975 2000 0.667 0.667 2000 0.667 0.667 0.667 0.667
10.000 2000 0.667 0.667 2000 0.667 0.667 0.667 0.667
10.025 2000 0.666 0.666 2000 0.666 0.666 0.666 0.666
10.050 2000 0.665 0.665 2000 0.665 0.665 0.665 0.665
10.075 2000 0.664 0.664 2000 0.664 0.664 0.664 0.664
10.100 2000 0.663 0.663 2000 0.663 0.663 0.663 0.663
10.125 2000 0.662 0.662 2000 0.662 0.662 0.662 0.662
10.150 2000 0.662 0.662 2000 0.662 0.662 0.662 0.662
10.175 2000 0.661 0.661 2000 0.661 0.661 0.661 0.661
10.200 2000 0.660 0.660 2000 0.660 0.660 0.660 0.660
10.225 2000 0.659 0.659 2000 0.659 0.659 0.659 0.659
10.250 2000 0.658 0.658 2000 0.658 0.658 0.658 0.658
10.275 2000 0.657 0.657 2000 0.657 0.657 0.657 0.657
10.300 2000 0.657 0.657 2000 0.657 0.657 0.657 0.657
10.325 2000 0.656 0.656 2000 0.656 0.656 0.656 0.656
10.350 2000 0.655 0.655 2000 0.655 0.655 0.655 0.655
10.375 2000 0.654 0.654 2000 0.654 0.654 0.654 0.654
10.400 2000 0.653 0.653 2000 0.653 0.653 0.653 0.653
10.425 2000 0.652 0.652 2000 0.652 0.652 0.652 0.652
10.450 2000 0.652 0.652 2000 0.652 0.652 0.652 0.652
10.475 2000 0.651 0.651 2000 0.651 0.651 0.651 0.651
10.500 2000 0.650 0.650 2000 0.650 0.650 0.650 0.650
10.525 2000 0.649 0.649 2000 0.649 0.649 0.649 0.649
10.550 2000 0.648 0.648 2000 0.648 0.648 0.648 0.648
10.575 2000 0.647 0.647 2000 0.647 0.647 0.647 0.647
10.600 2000 0.647 0.647 2000 0.647 0.647 0.647 0.647
10.625 2000 0.646 0.646 2000 0.646 0.646 0.646 0.646
10.650 2000 0.645 0.645 2000 0.645 0.645 0.645 0.645
10.675 2000 0.644 0.644 2000 0.644 0.644 0.644 0.644
10.700 2000 0.643 0.643 2000 0.643 0.643 0.643 0.643
10.725 2000 0.642 0.642 2000 0.642 0.642 0.642 0.642
10.750 2000 0.642 0.642 2000 0.642 0.642 0.642 0.642
10.775 2000 0.641 0.641 2000 0.641 0.641 0.641 0.641
10.800 2000 0.640 0.640 2000 0.640 0.640 0.640 0.640
10.825 2000 0.639 0.639 2000 0.639 0.639 0.639 0.639
10.850 2000 0.638 0.638 2000 0.638 0.638 0.638 0.638
10.875 2000 0.637 0.637 2000 0.637 0.637 0.637 0.637
10.900 2000 0.637 0.637 2000 0.637 0.637 0.637 0.637
10.925 2000 0.636 0.636 2000 0.636 0.636 0.636 0.636
10.950 2000 0.635 0.635 2000 0.635 0.635 0.635 0.635
10.975 2000 0.634 0.634 2000 0.634 0.634 0.634 0.634
11.000 2000 0.633 0.633 2000 0.633 0.633 0.633 0.633
11.025 2000 0.632 0.632 2000 0.632 0.632 0.632 0.632
11.050 2000 0.632 0.632 2000 0.632 0.632 0.632 0.632
11.075 2000 0.631 0.631 2000 0.631 0.631 0.631 0.631
11.100 2000 0.630 0.630 2000 0.630 0.630 0.630 0.630
11.125 2000 0.629 0.629 2000 0.629 0.629 0.629 0.629
11.150 2000 0.628 0.628 2000 0.628 0.628 0.628 0.628
11.175 2000 0.627 0.627 2000 0.627 0.627 0.627 0.627
11.200 2000 0.627 0.627 2000 0.627 0.627 0.627 0.627
11.225 2000 0.626 0.626 2000 0.626 0.626 0.626 0.626
11.250 2000 0.625 0.625 2000 0.625 0.625 0.625 0.625
11.275 2000 0.624 0.624 2000 0.624 0.624 0.624 0.624
11.300 2000 0.623 0.623 2000 0.623 0.623 0.623 0.623
11.325 2000 0.623 0.623 2000 0.623 0.623 0.623 0.623
11.350 2000 0.622 0.622 2000 0.622 0.622 0.622 0.622
11.375 2000 0.621 0.621 2000 0.621 0.621 0.621 0.621
11.400 2000 0.620 0.620 2000 0.620 0.620 0.620 0.620
11.425 2000 0.619 0.619 2000 0.619 0.619 0.619 0.619
11.450 2000 0.618 0.618 2000 0.618 0.618 0.618 0.618
11.475 2000 0.618 0.618 2000 0.618 0.618 0.618 0.618
11.500 2000 0.617 0.617 2000 0.617 0.617 0.617 0.617
11.525 2000 0.616 0.616 2000 0.616 0.616 0.616 0.616
11.550 2000 0.615 0.615 2000 0.615 0.615 0.615 0.615
11.575 2000 0.614 0.614 2000 0.614 0.614 0.614 0.614
11.600 2000 0.613 0.613 2000 0.613 0.613 0.613 0.613
11.625 2000 0.613 0.613 2000 0.613 0.613 0.613 0.613
11.650 2000 0.612 0.612 2000 0.612 0.612 0.612 0.612
11.675 2000 0.611 0.611 2000 0.611 0.611 0.611 0.611
11.700 2000 0.610 0.610 2000 0.610 0.610 0.610 0.610
11.725 2000 0.609 0.609 2000 0.609 0.609 0.609 0.609
11.750 2000 0.608 0.608 2000 0.608 0.608 0.608 0.608
11.775 2000 0.608 0.608 2000 0.608 0.608 0.608 0.608
11.800 2000 0.607 0.607 2000 0.607 0.607 0.607 0.607
11.825 2000 0.606 0.606 2000 0.606 0.606 0.606 0.606
11.850 2000 0.605 0.605 2000 0.605 0.605 0.605 0.605
11.875 2000 0.604 0.604 2000 0.604 0.604 0.604 0.604
11.900 2000 0.603 0.603 2000 0.603 0.603 0.603 0.603
11.925 2000 0.603 0.603 2000 0.603 0.603 0.603 0.603
11.950 2000 0.602 0.602 2000 0.602 0.602 0.602 0.602
11.975 2000 0.601 0.601 2000 0.601 0.601 0.601 0.601
12.000 2000 0.600 0.600 2000 0.600 0.600 0.600 0.600
12.025 2000 0.599 0.599 2000 0.599 0.599 0.599 0.599
12.050 2000 0.598 0.598 2000 0.598 0.598 0.598 0.598
12.075 2000 0.598 0.598 2000 0.598 0.598 0.598 0.598
12.100 2000 0.597 0.597 2000 0.597 0.597 0.597 0.597
12.125 2000 0.596 0.596 2000 0.596 0.596 0.596 0.596
12.150 2000 0.595 0.595 2000 0.595 0.595 0.595 0.595
12.175 2000 0.594 0.594 2000 0.594 0.594 0.594 0.594
12.200 2000 0.593 0.593 2000 0.593 0.593 0.593 0.593
12.225 2000 0.593 0.593 2000 0.593 0.593 0.593 0.593
12.250 2000 0.592 0.592 2000 0.592 0.592 0.592 0.592
12.275 2000 0.591 0.591 2000 0.591 0.591 0.591 0.591
12.300 2000 0.590 0.590 2000 0.590 0.590 0.590 0.590
12.325 2000 0.589 0.589 2000 0.589 0.589 0.589 0.589
12.350 2000 0.588 0.588 2000 0.588 0.588 0.588 0.588
12.375 2000 0.588 0.588 2000 0.588 0.588 0.588 0.588
12.400 2000 0.587 0.587 2000 0.587 0.587 0.587 0.587
12.425 2000 0.586 0.586 2000 0.586 0.586 0.586 0.586
12.450 2000 0.585 0.585 2000 0.585 0.585 0.585 0.585
12.475 2000 0.584 0.584 2000 0.584 0.584 0.584 0.584
12.500 2000 0.583 0.583 2000 0.583 0.583 0.583 0.583
12.525 2000 0.583 0.583 2000 0.583 0.583 0.583 0.583
12.550 2000 0.582 0.582 2000 0.582 0.582 0.582 0.582
12.575 2000 0.581 0.581 2000 0.581 0.581 0.581 0.581
12.600 2000 0.580 0.580 2000 0.580 0.580 0.580 0.580
12.625 2000 0.579 0.579 2000 0.579 0.579 0.579 0.579
12.650 2000 0.578 0.578 2000 0.578 0.578 0.578 0.578
12.675 2000 0.578 0.578 2000 0.578 0.578 0.578 0.578
12.700 2000 0.577 0.577 2000 0.577 0.577 0.577 0.577
12.725 2000 0.576 0.576 2000 0.576 0.576 0.576 0.576
12.750 2000 0.575 0.575 2000 0.575 0.575 0.575 0.575
12.775 2000 0.574 0.574 2000 0.574 0.574 0.574 0.574
12.800 2000 0.573 0.573 2000 0.573 0.573 0.573 0.573
12.825 2000 0.573 0.573 2000 0.573 0.573 0.573 0.573
12.850 2000 0.572 0.572 2000 0.572 0.572 0.572 0.572
12.875 2000 0.571 0.571 2000 0.571 0.571 0.571 0.571
12.900 2000 0.570 0.570 2000 0.570 0.570 0.570 0.570
12.925 2000 0.569 0.569 2000 0.569 0.569 0.569 0.569
12.950 2000 0.568 0.568 2000 0.568 0.568 0.568 0.568
12.975 2000 0.568 0.568 2000 0.568 0.568 0.568 0.568
13.000 2000 0.567 0.567 2000 0.567 0.567 0.567 0.567
13.025 2000 0.566 0.566 2000 0.566 0.566 0.566 0.566
13.050 2000 0.565 0.565 2000 0.565 0.565 0.565 0.565
13.075 2000 0.564 0.564 2000 0.564 0.564 0.564 0.564
13.100 2000 0.563 0.563 2000 0.563 0.563 0.563 0.563
13.125 2000 0.562 0.562 2000 0.562 0.562 0.562 0.562
13.150 2000 0.562 0.562 2000 0.562 0.562 0.562 0.562
13.175 2000 0.561 0.561 2000 0.561 0.561 0.561 0.561
13.200 2000 0.560 0.560 2000 0.560 0.560 0.560 0.560
13.225 2000 0.559 0.559 2000 0.559 0.559 0.559 0.559
13.250 2000 0.558 0.558 2000 0.558 0.558 0.558 0.558
13.275 2000 0.557 0.557 2000 0.557 0.557 0.557 0.557
13.300 2000 0.557 0.557 2000 0.557 0.557 0.557 0.557
13.325 2000 0.556 0.556 2000 0.556 0.556 0.556 0.556
13.350 2000 0.555 0.555 2000 0.555 0.555 0.555 0.555
13.375 2000 0.554 0.554 2000 0.554 0.554 0.554 0.554
13.400 2000 0.553 0.553 2000 0.553 0.553 0.553 0.553
13.425 2000 0.552 0.552 2000 0.552 0.552 0.552 0.552
13.450 2000 0.552 0.552 2000 0.552 0.552 0.552 0.552
13.475 2000 0.551 0.551 2000 0.551 0.551 0.551 0.551
13.500 2000 0.550 0.550 2000 0.550 0.550 0.550 0.550
13.525 2000 0.549 0.549 2000 0.549 0.549 0.549 0.549
13.550 2000 0.548 0.548 2000 0.548 0.548 0.548 0.548
13.575 2000 0.547 0.547 2000 0.547 0.547 0.547 0.547
13.600 2000 0.547 0.547 2000 0.547 0.547 0.547 0.547
13.625 2000 0.546 0.546 2000 0.546 0.546 0.546 0.546
13.650 2000 0.545 0.545 2000 0.545 0.545 0.545 0.545
13.675 2000 0.544 0.544 2000 0.544 0.544 0.544 0.544
13.700 2000 0.543 0.543 2000 0.543 0.543 0.543 0.543
13.725 2000 0.542 0.542 2000 0.542 0.542 0.542 0.542
13.750 2000 0.542 0.542 2000 0.542 0.542 0.542 0.542
13.775 2000 0.541 0.541 2000 0.541 0.541 0.541 0.541
13.800 2000 0.540 0.540 2000 0.540 0.540 0.540 0.540
13.825 2000 0.539 0.539 2000 0.539 0.539 0.539 0.539
13.850 2000 0.538 0.538 2000 0.538 0.538 0.538 0.538
13.875 2000 0.537 0.537 2000 0.537 0.537 0.537 0.537
13.900 2000 0.537 0.537 2000 0.537 0.537 0.537 0.537
13.925 2000 0.536 0.536 2000 0.536 0.536 0.536 0.536
13.950 2000 0.535 0.535 2000 0.535 0.535 0.535 0.535
13.975 2000 0.534 0.534 2000 0.534 0.534 0.534 0.534
14.000 2000 0.533 0.533 2000 0.533 0.533 0.533 0.533
14.025 2000 0.532 0.532 2000 0.532 0.532 0.532 0.532
14.050 2000 0.532 0.532 2000 0.532 0.532 0.532 0.532
14.075 2000 0.531 0.531 2000 0.531 0.531 0.531 0.531
14.100 2000 0.530 0.530 2000 0.530 0.530 0.530 0.530
14.125 2000 0.529 0.529 2000 0.529 0.529 0.529 0.529
14.150 2000 0.528 0.528 2000 0.528 0.528 0.528 0.528
14.175 2000 0.527 0.527 2000 0.527 0.527 0.527 0.527
14.200 2000 0.527 0.527 2000 0.527 0.527 0.527 0.527
14.225 2000 0.526 0.526 2000 0.526 0.526 0.526 0.526
14.250 2000 0.525 0.525 2000 0.525 0.525 0.525 0.525
14.275 2000 0.524 0.524 2000 0.524 0.524 0.524 0.524
14.300 2000 0.523 0.523 2000 0.523 0.523 0.523 0.523
14.325 2000 0.522 0.522 2000 0.522 0.522 0.522 0.522
14.350 2000 0.522 0.522 2000 0.522 0.522 0.522 0.522
14.375 2000 0.521 0.521 2000 0.521 0.521 0.521 0.521
14.400 2000 0.520 0.520 2000 0.520 0.520 0.520 0.520
14.425 2000 0.519 0.519 2000 0.519 0.519 0.519 0.519
14.450 2000 0.518 0.518 2000 0.518 0.518 0.518 0.518
14.475 2000 0.517 0.517 2000 0.517 0.517 0.517 0.517
14.500 2000 0.517 0.517 2000 0.517 0.517 0.517 0.517
14.525 2000 0.516 0.516 2000 0.516 0.516 0.516 0.516
14.550 2000 0.515 0.515 2000 0.515 0.515 0.515 0.515
14.575 2000 0.514 0.514 2000 0.514 0.514 0.514 0.514
14.600 2000 0.513 0.513 2000 0.513 0.513 0.513 0.513
14.625 2000 0.512 0.512 2000 0.512 0.512 0.512 0.512
14.650 2000 0.512 0.512 2000 0.512 0.512 0.512 0.512
14.675 2000 0.511 0.511 2000 0.511 0.511 0.511 0.511
14.700 2000 0.510 0.510 2000 0.510 0.510 0.510 0.510
14.725 2000 0.509 0.509 2000 0.509 0.509 0.509 0.509
14.750 2000 0.508 0.508 2000 0.508 0.508 0.508 0.508
14.775 2000 0.507 0.507 2000 0.507 0.507 0.507 0.507
14.800 2000 0.507 0.507 2000 0.507 0.507 0.507 0.507
14.825 2000 0.506 0.506 2000 0.506 0.506 0.506 0.506
14.850 2000 0.505 0.505 2000 0.505 0.505 0.505 0.505
14.875 2000 0.504 0.504 2000 0.504 0.504 0.504 0.504
14.900 2000 0.503 0.503 2000 0.503 0.503 0.503 0.503
14.925 2000 0.502 0.502 2000 0.502 0.502 0.502 0.502
14.950 2000 0.502 0.502 2000 0.502 0.502 0.502 0.502
14.975 2000 0.501 0.501 2000 0.501 0.501 0.501 0.501
15.000 2000 0.500 0.500 2000 0.500 0.500 0.500 0.500
15.025 2000 0.499 0.499 2000 0.499 0.499 0.499 0.499
15.050 2000 0.498 0.498 2000 0.498 0.498 0.498 0.498
15.075 2000 0.497 0.497 2000 0.497 0.497 0.497 0.497
15.100 2000 0.497 0.497 2000 0.497 0.497 0.497 0.497
15.125 2000 0.496 0.496 2000 0.496 0.496 0.496 0.496
15.150 2000 0.495 0.495 2000 0.495 0.495 0.495 0.495
15.175 2000 0.494 0.494 2000 0.494 0.494 0.494 0.494
15.200 2000 0.493 0.493 2000 0.493 0.493 0.493 0.493
15.225 2000 0.492 0.492 2000 0.492 0.492 0.492 0.492
15.250 2000 0.492 0.492 2000 0.492 0.492 0.492 0.492
15.275 2000 0.491 0.491 2000 0.491 0.491 0.491 0.491
15.300 2000 0.490 0.490 2000 0.490 0.490 0.490 0.490
15.325 2000 0.489 0.489 2000 0.489 0.489 0.489 0.489
15.350 2000 0.488 0.488 2000 0.488 0.488 0.488 0.488
15.375 2000 0.487 0.487 2000 0.487 0.487 0.487 0.487
15.400 2000 0.487 0.487 2000 0.487 0.487 0.487 0.487
15.425 2000 0.486 0.486 2000 0.486 0.486 0.486 0.486
15.450 2000 0.485 0.485 2000 0.485 0.485 0.485 0.485
15.475 2000 0.484 0.484 2000 0.484 0.484 0.484 0.484
15.500 2000 0.483 0.483 2000 0.483 0.483 0.483 0.483
15.525 2000 0.482 0.482 2000 0.482 0.482 0.482 0.482
15.550 2000 0.482 0.482 2000 0.482 0.482 0.482 0.482
15.575 2000 0.481 0.481 2000 0.481 0.481 0.481 0.481
15.600 2000 0.480 0.480 2000 0.480 0.480 0.480 0.480
15.625 2000 0.479 0.479 2000 0.479 0.479 0.479 0.479
15.650 2000 0.478 0.478 2000 0.478 0.478 0.478 0.478
15.675 2000 0.477 0.477 2000 0.477 0.477 0.477 0.477
15.700 2000 0.477 0.477 2000 0.477 0.477 0.477 0.477
15.725 2000 0.476 0.476 2000 0.476 0.476 0.476 0.476
15.750 2000 0.475 0.475 2000 0.475 0.475 0.475 0.475
15.775 2000 0.474 0.474 2000 0.474 0.474 0.474 0.474
15.800 2000 0.473 0.473 2000 0.473 0.473 0.473 0.473
15.825 2000 0.472 0.472 2000 0.472 0.472 0.472 0.472
15.850 2000 0.472 0.472 2000 0.472 0.472 0.472 0.472
15.875 2000 0.471 0.471 2000 0.471 0.471 0.471 0.471
15.900 2000 0.470 0.470 2000 0.470 0.470 0.470 0.470
15.925 2000 0.469 0.469 2000 0.469 0.469 0.469 0.469
15.950 2000 0.468 0.468 2000 0.468 0.468 0.468 0.468
15.975 2000 0.468 0.468 2000 0.468 0.468 0.468 0.468
16.000 2000 0.467 0.467 2000 0.467 0.467 0.467 0.467
16.025 2000 0.466 0.466 2000 0.466 0.466 0.466 0.466
16.050 2000 0.465 0.465 2000 0.465 0.465 0.465 0.465
16.075 2000 0.464 0.464 2000 0.464 0.464 0.464 0.464
16.100 2000 0.463 0.463 2000 0.463 0.463 0.463 0.463
16.125 2000 0.463 0.463 2000 0.463 0.463 0.463 0.463
16.150 2000 0.462 0.462 2000 0.462 0.462 0.462 0.462
16.175 2000 0.461 0.461 2000 0.461 0.461 0.461 0.461
16.200 2000 0.460 0.460 2000 0.460 0.460 0.460 0.460
16.225 2000 0.459 0.459 2000 0.459 0.459 0.459 0.459
16.250 2000 0.458 0.458 2000 0.458 0.458 0.458 0.458
16.275 2000 0.458 0.458 2000 0.458 0.458 0.458 0.458
16.300 2000 0.457 0.457 2000 0.457 0.457 0.457 0.457
16.325 2000 0.456 0.456 2000 0.456 0.456 0.456 0.456
16.350 2000 0.455 0.455 2000 0.455 0.455 0.455 0.455
16.375 2000 0.454 0.454 2000 0.454 0.454 0.454 0.454
16.400 2000 0.453 0.453 2000 0.453 0.453 0.453 0.453
16.425 2000 0.453 0.453 2000 0.453 0.453 0.453 0.453
16.450 2000 0.452 0.452 2000 0.452 0.452 0.452 0.452
16.475 2000 0.451 0.451 2000 0.451 0.451 0.451 0.451
16.500 2000 0.450 0.450 2000 0.450 0.450 0.450 0.450
16.525 2000 0.449 0.449 2000 0.449 0.449 0.449 0.449
16.550 2000 0.448 0.448 2000 0.448 0.448 0.448 0.448
16.575 2000 0.448 0.448 2000 0.448 0.448 0.448 0.448
16.600 2000 0.447 0.447 2000 0.447 0.447 0.447 0.447
16.625 2000 0.446 0.446 2000 0.446 0.446 0.446 0.446
16.650 2000 0.445 0.445 2000 0.445 0.445 0.445 0.445
16.675 2000 0.444 0.444 2000 0.444 0.444 0.444 0.444
16.700 2000 0.443 0.443 2000 0.443 0.443 0.443 0.443
16.725 2000 0.443 0.443 2000 0.443 0.443 0.443 0.443
16.750 2000 0.442 0.442 2000 0.442 0.442 0.442 0.442
16.775 2000 0.441 0.441 2000 0.441 0.441 0.441 0.441
16.800 2000 0.440 0.440 2000 0.440 0.440 0.440 0.440
16.825 2000 0.439 0.439 2000 0.439 0.439 0.439 0.439
16.850 2000 0.438 0.438 2000 0.438 0.438 0.438 0.438
16.875 2000 0.438 0.438 2000 0.438 0.438 0.438 0.438
16.900 2000 0.437 0.437 2000 0.437 0.437 0.437 0.437
16.925 2000 0.436 0.436 2000 0.436 0.436 0.436 0.436
16.950 2000 0.435 0.435 2000 0.435 0.435 0.435 0.435
16.975 2000 0.434 0.434 2000 0.434 0.434 0.434 0.434
17.000 2000 0.433 0.433 2000 0.433 0.433 0.433 0.433
17.025 2000 0.432 0.432 2000 0.432 0.432 0.432 0.432
17.050 2000 0.432 0.432 2000 0.432 0.432 0.432 0.432
17.075 2000 0.431 0.431 2000 0.431 0.431 0.431 0.431
17.100 2000 0.430 0.430 2000 0.430 0.430 0.430 0.430
17.125 2000 0.429 0.429 2000 0.429 0.429 0.429 0.429
17.150 2000 0.428 0.428 2000 0.428 0.428 0.428 0.428
17.175 2000 0.427 0.427 2000 0.427 0.427 0.427 0.427
17.200 2000 0.427 0.427 2000 0.427 0.427 0.427 0.427
17.225 2000 0.426 0.426 2000 0.426 0.426 0.426 0.426
17.250 2000 0.425 0.425 2000 0.425 0.425 0.425 0.425
17.275 2000 0.424 0.424 2000 0.424 0.424 0.424 0.424
17.300 2000 0.423 0.423 2000 0.423 0.423 0.423 0.423
17.325 2000 0.422 0.422 2000 0.422 0.422 0.422 0.422
17.350 2000 0.422 0.422 2000 0.422 0.422 0.422 0.422
17.375 2000 0.421 0.421 2000 0.421 0.421 0.421 0.421
17.400 2000 0.420 0.420 2000 0.420 0.420 0.420 0.420
17.425 2000 0.419 0.419 2000 0.419 0.419 0.419 0.419
17.450 2000 0.418 0.418 2000 0.418 0.418 0.418 0.418
17.475 2000 0.417 0.417 2000 0.417 0.417 0.417 0.417
17.500 2000 0.417 0.417 2000 0.417 0.417 0.417 0.417
17.525 2000 0.416 0.416 2000 0.416 0.416 0.416 0.416
17.550 2000 0.415 0.415 2000 0.415 0.415 0.415 0.415
17.575 2000 0.414 0.414 2000 0.414 0.414 0.414 0.414
17.600 2000 0.413 0.413 2000 0.413 0.413 0.413 0.413
17.625 2000 0.412 0.412 2000 0.412 0.412 0.412 0.412
17.650 2000 0.412 0.412 2000 0.412 0.412 0.412 0.412
17.675 2000 0.411 0.411 2000 0.411 0.411 0.411 0.411
17.700 2000 0.410 0.410 2000 0.410 0.410 0.410 0.410
17.725 2000 0.409 0.409 2000 0.409 0.409 0.409 0.409
17.750 2000 0.408 0.408 2000 0.408 0.408 0.408 0.408
17.775 2000 0.407 0.407 2000 0.407 0.407 0.407 0.407
17.800 2000 0.407 0.407 2000 0.407 0.407 0.407 0.407
17.825 2000 0.406 0.406 2000 0.406 0.406 0.406 0.406
17.850 2000 0.405 0.405 2000 0.405 0.405 0.405 0.405
17.875 2000 0.404 0.404 2000 0.404 0.404 0.404 0.404
17.900 2000 0.403 0.403 2000 0.403 0.403 0.403 0.403
17.925 2000 0.403 0.403 2000 0.403 0.403 0.403 0.403
17.950 2000 0.402 0.402 2000 0.402 0.402 0.402 0.402
17.975 2000 0.401 0.401 2000 0.401 0.401 0.401 0.401
18.000 2000 0.400 0.400 2000 0.400 0.400 0.400 0.400
18.025 2000 0.399 0.399 2000 0.399 0.399 0.399 0.399
18.050 2000 0.398 0.398 2000 0.398 0.398 0.398 0.398
18.075 2000 0.398 0.398 2000 0.398 0.398 0.398 0.398
18.100 2000 0.397 0.397 2000 0.397 0.397 0.397 0.397
18.125 2000 0.396 0.396 2000 0.396 0.396 0.396 0.396
18.150 2000 0.395 0.395 2000 0.395 0.395 0.395 0.395
18.175 2000 0.394 0.394 2000 0.394 0.394 0.394 0.394
18.200 2000 0.393 0.393 2000 0.393 0.393 0.393 0.393
18.225 2000 0.393 0.393 2000 0.393 0.393 0.393 0.393
18.250 2000 0.392 0.392 2000 0.392 0.392 0.392 0.392
18.275 2000 0.391 0.391 2000 0.391 0.391 0.391 0.391
18.300 2000 0.390 0.390 2000 0.390 0.390 0.390 0.390
18.325 2000 0.389 0.389 2000 0.389 0.389 0.389 0.389
18.350 2000 0.388 0.388 2000 0.388 0.388 0.388 0.388
18.375 2000 0.388 0.388 2000 0.388 0.388 0.388 0.388
18.400 2000 0.387 0.387 2000 0.387 0.387 0.387 0.387
18.425 2000 0.386 0.386 2000 0.386 0.386 0.386 0.386
18.450 2000 0.385 0.385 2000 0.385 0.385 0.385 0.385
18.475 2000 0.384 0.384 2000 0.384 0.384 0.384 0.384
18.500 2000 0.383 0.383 2000 0.383 0.383 0.383 0.383
18.525 2000 0.383 0.383 2000 0.383 0.383 0.383 0.383
18.550 2000 0.382 0.382 2000 0.382 0.382 0.382 0.382
18.575 2000 0.381 0.381 2000 0.381 0.381 0.381 0.381
18.600 2000 0.380 0.380 2000 0.380 0.380 0.380 0.380
18.625 2000 0.379 0.379 2000 0.379 0.379 0.379 0.379
18.650 2000 0.378 0.378 2000 0.378 0.378 0.378 0.378
18.675 2000 0.378 0.378 2000 0.378 0.378 0.378 0.378
18.700 2000 0.377 0.377 2000 0.377 0.377 0.377 0.377
18.725 2000 0.376 0.376 2000 0.376 0.376 0.376 0.376
18.750 2000 0.375 0.375 2000 0.375 0.375 0.375 0.375
18.775 2000 0.374 0.374 2000 0.374 0.374 0.374 0.374
18.800 2000 0.373 0.373 2000 0.373 0.373 0.373 0.373
18.825 2000 0.372 0.372 2000 0.372 0.372 0.372 0.372
18.850 2000 0.372 0.372 2000 0.372 0.372 0.372 0.372
18.875 2000 0.371 0.371 2000 0.371 0.371 0.371 0.371
18.900 2000 0.370 0.370 2000 0.370 0.370 0.370 0.370
18.925 2000 0.369 0.369 2000 0.369 0.369 0.369 0.369
18.950 2000 0.368 0.368 2000 0.368 0.368 0.368 0.368
18.975 2000 0.367 0.367 2000 0.367 0.367 0.367 0.367
19.000 2000 0.367 0.367 2000 0.367 0.367 0.367 0.367
19.025 2000 0.366 0.366 2000 0.366 0.366 0.366 0.366
19.050 2000 0.365 0.365 2000 0.365 0.365 0.365 0.365
19.075 2000 0.364 0.364 2000 0.364 0.364 0.364 0.364
19.100 2000 0.363 0.363 2000 0.363 0.363 0.363 0.363
19.125 2000 0.362 0.362 2000 0.362 0.362 0.362 0.362
19.150 2000 0.362 0.362 2000 0.362 0.362 0.362 0.362
19.175 2000 0.361 0.361 2000 0.361 0.361 0.361 0.361
19.200 2000 0.360 0.360 2000 0.360 0.360 0.360 0.360
19.225 2000 0.359 0.359 2000 0.359 0.359 0.359 0.359
19.250 2000 0.358 0.358 2000 0.358 0.358 0.358 0.358
19.275 2000 0.357 0.357 2000 0.357 0.357 0.357 0.357
19.300 2000 0.357 0.357 2000 0.357 0.357 0.357 0.357
19.325 2000 0.356 0.356 2000 0.356 0.356 0.356 0.356
19.350 2000 0.355 0.355 2000 0.355 0.355 0.355 0.355
19.375 2000 0.354 0.354 2000 0.354 0.354 0.354 0.354
19.400 2000 0.353 0.353 2000 0.353 0.353 0.353 0.353
19.425 2000 0.352 0.352 2000 0.352 0.352 0.352 0.352
19.450 2000 0.352 0.352 2000 0.352 0.352 0.352 0.352
19.475 2000 0.351 0.351 2000 0.351 0.351 0.351 0.351
19.500 2000 0.350 0.350 2000 0.350 0.350 0.350 0.350
19.525 2000 0.349 0.349 2000 0.349 0.349 0.349 0.349
19.550 2000 0.348 0.348 2000 0.348 0.348 0.348 0.348
19.575 2000 0.347 0.347 2000 0.347 0.347 0.347 0.347
19.600 2000 0.347 0.347 2000 0.347 0.347 0.347 0.347
19.625 2000 0.346 0.346 2000 0.346 0.346 0.346 0.346
19.650 2000 0.345 0.345 2000 0.345 0.345 0.345 0.345
19.675 2000 0.344 0.344 2000 0.344 0.344 0.344 0.344
19.700 2000 0.343 0.343 2000 0.343 0.343 0.343 0.343
19.725 2000 0.343 0.343 2000 0.343 0.343 0.343 0.343
19.750 2000 0.342 0.342 2000 0.342 0.342 0.342 0.342
19.775 2000 0.341 0.341 2000 0.341 0.341 0.341 0.341
19.800 2000 0.340 0.340 2000 0.340 0.340 0.340 0.340
19.825 2000 0.339 0.339 2000 0.339 0.339 0.339 0.339
19.850 2000 0.338 0.338 2000 0.338 0.338 0.338 0.338
19.875 2000 0.338 0.338 2000 0.338 0.338 0.338 0.338
19.900 2000 0.337 0.337 2000 0.337 0.337 0.337 0.337
19.925 2000 0.336 0.336 2000 0.336 0.336 0.336 0.336
19.950 2000 0.335 0.335 2000 0.335 0.335 0.335 0.335
19.975 2000 0.334 0.334 2000 0.334 0.334 0.334 0.334
20.000 2000 0.333 0.333 2000 0.333 0.333 0.333 0.333
20.025 2000 0.333 0.333 2000 0.333 0.333 0.333 0.333
20.050 2000 0.332 0.332 2000 0.332 0.332 0.332 0.332
20.075 2000 0.331 0.331 2000 0.331 0.331 0.331 0.331
20.100 2000 0.330 0.330 2000 0.330 0.330 0.330 0.330
20.125 2000 0.329 0.329 2000 0.329 0.329 0.329 0.329
20.150 2000 0.328 0.328 2000 0.328 0.328 0.328 0.328
20.175 2000 0.328 0.328 2000 0.328 0.328 0.328 0.328
20.200 2000 0.327 0.327 2000 0.327 0.327 0.327 0.327
20.225 2000 0.326 0.326 2000 0.326 0.326 0.326 0.326
20.250 2000 0.325 0.325 2000 0.325 0.325 0.325 0.325
20.275 2000 0.324 0.324 2000 0.324 0.324 0.324 0.324
20.300 2000 0.323 0.323 2000 0.323 0.323 0.323 0.323
20.325 2000 0.323 0.323 2000 0.323 0.323 0.323 0.323
20.350 2000 0.322 0.322 2000 0.322 0.322 0.322 0.322
20.375 2000 0.321 0.321 2000 0.321 0.321 0.321 0.321
20.400 2000 0.320 0.320 2000 0.320 0.320 0.320 0.320
20.425 2000 0.319 0.319 2000 0.319 0.319 0.319 0.319
20.450 2000 0.318 0.318 2000 0.318 0.318 0.318 0.318
20.475 2000 0.318 0.318 2000 0.318 0.318 0.318 0.318
20.500 2000 0.317 0.317 2000 0.317 0.317 0.317 0.317
20.525 1900 0.316 0.332 1900 0.316 0.316 0.332 0.332
20.550 1900 0.315 0.332 1900 0.315 0.315 0.332 0.332
20.575 1900 0.314 0.331 1900 0.314 0.314 0.331 0.331
20.600 1900 0.313 0.330 1900 0.313 0.313 0.330 0.330
20.625 1900 0.312 0.329 1900 0.312 0.312 0.329 0.329
20.650 1900 0.312 0.328 1900 0.312 0.312 0.328 0.328
20.675 1900 0.311 0.327 1900 0.311 0.311 0.327 0.327
20.700 1900 0.310 0.326 1900 0.310 0.310 0.326 0.326
20.725 1900 0.309 0.325 1900 0.309 0.309 0.325 0.325
20.750 1900 0.308 0.325 1900 0.308 0.308 0.325 0.325
20.775 1900 0.307 0.324 1900 0.307 0.307 0.324 0.324
20.800 1900 0.307 0.323 1900 0.307 0.307 0.323 0.323
20.825 1900 0.306 0.322 1900 0.306 0.306 0.322 0.322
20.850 1900 0.305 0.321 1900 0.305 0.305 0.321 0.321
20.875 1900 0.304 0.320 1900 0.304 0.304 0.320 0.320
20.900 1900 0.303 0.319 1900 0.303 0.303 0.319 0.319
20.925 1900 0.302 0.318 1900 0.302 0.302 0.318 0.318
20.950 1900 0.302 0.318 1900 0.302 0.302 0.318 0.318
20.975 1900 0.301 0.317 1900 0.301 0.301 0.317 0.317
21.000 1900 0.300 0.316 1900 0.300 0.300 0.316 0.316
21.025 1900 0.299 0.315 1900 0.299 0.299 0.315 0.315
21.050 1700 0.298 0.351 1700 0.298 0.298 0.351 0.351
21.075 1700 0.297 0.350 1700 0.297 0.297 0.350 0.350
21.100 1700 0.297 0.349 1700 0.297 0.297 0.349 0.349
21.125 1700 0.296 0.348 1700 0.296 0.296 0.348 0.348
21.150 1700 0.295 0.347 1700 0.295 0.295 0.347 0.347
21.175 1700 0.294 0.346 1700 0.294 0.294 0.346 0.346
21.200 1700 0.293 0.345 1700 0.293 0.293 0.345 0.345
21.225 1700 0.292 0.344 1700 0.292 0.292 0.344 0.344
21.250 1700 0.292 0.343 1700 0.292 0.292 0.343 0.343
21.275 1700 0.291 0.342 1700 0.291 0.291 0.342 0.342
21.300 1700 0.290 0.341 1700 0.290 0.290 0.341 0.341
21.325 1700 0.289 0.340 1700 0.289 0.289 0.340 0.340
21.350 1700 0.288 0.339 1700 0.288 0.288 0.339 0.339
21.375 1700 0.287 0.338 1700 0.287 0.287 0.338 0.338
21.400 1700 0.287 0.337 1700 0.287 0.287 0.337 0.337
21.425 1700 0.286 0.336 1700 0.286 0.286 0.336 0.336
21.450 1700 0.285 0.335 1700 0.285 0.285 0.335 0.335
21.475 1700 0.284 0.334 1700 0.284 0.284 0.334 0.334
21.500 1700 0.283 0.333 1700 0.283 0.283 0.333 0.333
21.525 1700 0.282 0.332 1700 0.282 0.282 0.332 0.332
21.550 1500 0.282 0.376 1500 0.282 0.282 0.376 0.376
21.575 1500 0.281 0.374 1500 0.281 0.281 0.374 0.374
21.600 1500 0.280 0.373 1500 0.280 0.280 0.373 0.373
21.625 1500 0.279 0.372 1500 0.279 0.279 0.372 0.372
21.650 1500 0.278 0.371 1500 0.278 0.278 0.371 0.371
21.675 1500 0.278 0.370 1500 0.278 0.278 0.370 0.370
21.700 1500 0.277 0.369 1500 0.277 0.277 0.369 0.369
21.725 1500 0.276 0.368 1500 0.276 0.276 0.368 0.368
21.750 1500 0.275 0.367 1500 0.275 0.275 0.367 0.367
21.775 1500 0.274 0.366 1500 0.274 0.274 0.366 0.366
21.800 1500 0.273 0.364 1500 0.273 0.273 0.364 0.364
21.825 1500 0.273 0.363 1500 0.273 0.273 0.363 0.363
21.850 1500 0.272 0.362 1500 0.272 0.272 0.362 0.362
21.875 1500 0.271 0.361 1500 0.271 0.271 0.361 0.361
21.900 1500 0.270 0.360 1500 0.270 0.270 0.360 0.360
21.925 1500 0.269 0.359 1500 0.269 0.269 0.359 0.359
21.950 1500 0.268 0.358 1500 0.268 0.268 0.358 0.358
21.975 1500 0.268 0.357 1500 0.268 0.268 0.357 0.357
22.000 1500 0.267 0.356 1500 0.267 0.267 0.356 0.356
22.025 1500 0.266 0.354 1500 0.266 0.266 0.354 0.354
22.050 1300 0.265 0.408 1300 0.265 0.265 0.408 0.408
22.075 1300 0.264 0.406 1300 0.264 0.264 0.406 0.406
22.100 1300 0.263 0.405 1300 0.263 0.263 0.405 0.405
22.125 1300 0.263 0.404 1300 0.263 0.263 0.404 0.404
22.150 1300 0.262 0.403 1300 0.262 0.262 0.403 0.403
22.175 1300 0.261 0.401 1300 0.261 0.261 0.401 0.401
22.200 1300 0.260 0.400 1300 0.260 0.260 0.400 0.400
22.225 1300 0.259 0.399 1300 0.259 0.259 0.399 0.399
22.250 1300 0.258 0.397 1300 0.258 0.258 0.397 0.397
22.275 1300 0.258 0.396 1300 0.258 0.258 0.396 0.396
22.300 1300 0.257 0.395 1300 0.257 0.257 0.395 0.395
22.325 1300 0.256 0.394 1300 0.256 0.256 0.394 0.394
22.350 1300 0.255 0.392 1300 0.255 0.255 0.392 0.392
22.375 1300 0.254 0.391 1300 0.254 0.254 0.391 0.391
22.400 1300 0.253 0.390 1300 0.253 0.253 0.390 0.390
22.425 1300 0.253 0.388 1300 0.253 0.253 0.388 0.388
22.450 1300 0.252 0.387 1300 0.252 0.252 0.387 0.387
22.475 1300 0.251 0.386 1300 0.251 0.251 0.386 0.386
22.500 1300 0.250 0.385 1300 0.250 0.250 0.385 0.385
22.525 1300 0.249 0.383 1300 0.249 0.249 0.383 0.383
22.550 1200 0.248 0.414 1200 0.248 0.248 0.414 0.414
22.575 1200 0.247 0.412 1200 0.247 0.247 0.412 0.412
22.600 1200 0.247 0.411 1200 0.247 0.247 0.411 0.411
22.625 1200 0.246 0.410 1200 0.246 0.246 0.410 0.410
22.650 1200 0.245 0.408 1200 0.245 0.245 0.408 0.408
22.675 1200 0.244 0.407 1200 0.244 0.244 0.407 0.407
22.700 1200 0.243 0.406 1200 0.243 0.243 0.406 0.406
22.725 1200 0.242 0.404 1200 0.242 0.242 0.404 0.404
22.750 1200 0.242 0.403 1200 0.242 0.242 0.403 0.403
22.775 1200 0.241 0.401 1200 0.241 0.241 0.401 0.401
22.800 1200 0.240 0.400 1200 0.240 0.240 0.400 0.400
22.825 1200 0.239 0.399 1200 0.239 0.239 0.399 0.399
22.850 1200 0.238 0.397 1200 0.238 0.238 0.397 0.397
22.875 1200 0.237 0.396 1200 0.237 0.237 0.396 0.396
22.900 1200 0.237 0.394 1200 0.237 0.237 0.394 0.394
22.925 1200 0.236 0.393 1200 0.236 0.236 0.393 0.393
22.950 1200 0.235 0.392 1200 0.235 0.235 0.392 0.392
22.975 1200 0.234 0.390 1200 0.234 0.234 0.390 0.390
23.000 1200 0.233 0.389 1200 0.233 0.233 0.389 0.389
23.025 1200 0.233 0.388 1200 0.233 0.233 0.388 0.388
23.050 1200 0.232 0.386 1200 0.232 0.232 0.386 0.386
23.075 1200 0.231 0.385 1200 0.231 0.231 0.385 0.385
23.100 1200 0.230 0.383 1200 0.230 0.230 0.383 0.383
23.125 1200 0.229 0.382 1200 0.229 0.229 0.382 0.382
23.150 1200 0.228 0.381 1200 0.228 0.228 0.381 0.381
23.175 1200 0.228 0.379 1200 0.228 0.228 0.379 0.379
23.200 1200 0.227 0.378 1200 0.227 0.227 0.378 0.378
23.225 1200 0.226 0.376 1200 0.226 0.226 0.376 0.376
23.250 1200 0.225 0.375 1200 0.225 0.225 0.375 0.375
23.275 1200 0.224 0.374 1200 0.224 0.224 0.374 0.374
23.300 1200 0.223 0.372 1200 0.223 0.223 0.372 0.372
23.325 1200 0.223 0.371 1200 0.223 0.223 0.371 0.371
23.350 1200 0.222 0.369 1200 0.222 0.222 0.369 0.369
23.375 1200 0.221 0.368 1200 0.221 0.221 0.368 0.368
23.400 1200 0.220 0.367 1200 0.220 0.220 0.367 0.367
23.425 1200 0.219 0.365 1200 0.219 0.219 0.365 0.365
23.450 1200 0.218 0.364 1200 0.218 0.218 0.364 0.364
23.475 1200 0.217 0.362 1200 0.217 0.217 0.362 0.362
23.500 1200 0.217 0.361 1200 0.217 0.217 0.361 0.361
23.525 1200 0.216 0.360 1200 0.216 0.216 0.360 0.360
23.550 1200 0.215 0.358 1200 0.215 0.215 0.358 0.358
23.575 1200 0.214 0.357 1200 0.214 0.214 0.357 0.357
23.600 1200 0.213 0.356 1200 0.213 0.213 0.356 0.356
23.625 1200 0.212 0.354 1200 0.212 0.212 0.354 0.354
23.650 1200 0.212 0.353 1200 0.212 0.212 0.353 0.353
23.675 1200 0.211 0.351 1200 0.211 0.211 0.351 0.351
23.700 1200 0.210 0.350 1200 0.210 0.210 0.350 0.350
23.725 1200 0.209 0.349 1200 0.209 0.209 0.349 0.349
23.750 1200 0.208 0.347 1200 0.208 0.208 0.347 0.347
23.775 1200 0.207 0.346 1200 0.207 0.207 0.346 0.346
23.800 1200 0.207 0.344 1200 0.207 0.207 0.344 0.344
23.825 1200 0.206 0.343 1200 0.206 0.206 0.343 0.343
23.850 1200 0.205 0.342 1200 0.205 0.205 0.342 0.342
23.875 1200 0.204 0.340 1200 0.204 0.204 0.340 0.340
23.900 1200 0.203 0.339 1200 0.203 0.203 0.339 0.339
23.925 1200 0.203 0.338 1200 0.203 0.203 0.338 0.338
23.950 1200 0.202 0.336 1200 0.202 0.202 0.336 0.336
23.975 1200 0.201 0.335 1200 0.201 0.201 0.335 0.335
24.000 1200 0.200 0.333 1200 0.200 0.200 0.333 0.333
24.025 1200 0.199 0.332 1200 0.199 0.199 0.332 0.332
24.050 1200 0.198 0.331 1200 0.198 0.198 0.331 0.331
24.075 1200 0.198 0.329 1200 0.198 0.198 0.329 0.329
24.100 1200 0.197 0.328 1200 0.197 0.197 0.328 0.328
24.125 1200 0.196 0.326 1200 0.196 0.196 0.326 0.326
24.150 1200 0.195 0.325 1200 0.195 0.195 0.325 0.325
24.175 1200 0.194 0.324 1200 0.194 0.194 0.324 0.324
24.200 1200 0.193 0.322 1200 0.193 0.193 0.322 0.322
24.225 1200 0.193 0.321 1200 0.193 0.193 0.321 0.321
24.250 1200 0.192 0.319 1200 0.192 0.192 0.319 0.319
24.275 1200 0.191 0.318 1200 0.191 0.191 0.318 0.318
24.300 1200 0.190 0.317 1200 0.190 0.190 0.317 0.317
24.325 1200 0.189 0.315 1200 0.189 0.189 0.315 0.315
24.350 1200 0.188 0.314 1200 0.188 0.188 0.314 0.314
24.375 1200 0.188 0.312 1200 0.188 0.188 0.312 0.312
24.400 1200 0.187 0.311 1200 0.187 0.187 0.311 0.311
24.425 1200 0.186 0.310 1200 0.186 0.186 0.310 0.310
24.450 1200 0.185 0.308 1200 0.185 0.185 0.308 0.308
24.475 1200 0.184 0.307 1200 0.184 0.184 0.307 0.307
24.500 1200 0.183 0.306 1200 0.183 0.183 0.306 0.306
24.525 1200 0.182 0.304 1200 0.182 0.182 0.304 0.304
24.550 1200 0.182 0.303 1200 0.182 0.182 0.303 0.303
24.575 1200 0.181 0.301 1200 0.181 0.181 0.301 0.301
24.600 1200 0.180 0.300 1200 0.180 0.180 0.300 0.300
24.625 1200 0.179 0.299 1200 0.179 0.179 0.299 0.299
24.650 1200 0.178 0.297 1200 0.178 0.178 0.297 0.297
24.675 1200 0.177 0.296 1200 0.177 0.177 0.296 0.296
24.700 1200 0.177 0.294 1200 0.177 0.177 0.294 0.294
24.725 1200 0.176 0.293 1200 0.176 0.176 0.293 0.293
24.750 1200 0.175 0.292 1200 0.175 0.175 0.292 0.292
24.775 1200 0.174 0.290 1200 0.174 0.174 0.290 0.290
24.800 1200 0.173 0.289 1200 0.173 0.173 0.289 0.289
24.825 1200 0.172 0.287 1200 0.172 0.172 0.287 0.287
24.850 1200 0.172 0.286 1200 0.172 0.172 0.286 0.286
24.875 1200 0.171 0.285 1200 0.171 0.171 0.285 0.285
24.900 1200 0.170 0.283 1200 0.170 0.170 0.283 0.283
24.925 1200 0.169 0.282 1200 0.169 0.169 0.282 0.282
24.950 1200 0.168 0.281 1200 0.168 0.168 0.281 0.281
24.975 1200 0.168 0.279 1200 0.168 0.168 0.279 0.279
25.000 1200 0.167 0.278 1200 0.167 0.167 0.278 0.278
25.025 1200 0.166 0.276 1200 0.166 0.166 0.276 0.276
25.050 1100 0.165 0.300 1100 0.165 0.165 0.300 0.300
25.075 1100 0.164 0.298 1100 0.164 0.164 0.298 0.298
25.100 1100 0.163 0.297 1100 0.163 0.163 0.297 0.297
25.125 1100 0.163 0.295 1100 0.163 0.163 0.295 0.295
25.150 1100 0.162 0.294 1100 0.162 0.162 0.294 0.294
25.175 1100 0.161 0.292 1100 0.161 0.161 0.292 0.292
25.200 1100 0.160 0.291 1100 0.160 0.160 0.291 0.291
25.225 1100 0.159 0.289 1100 0.159 0.159 0.289 0.289
25.250 1100 0.158 0.288 1100 0.158 0.158 0.288 0.288
25.275 1100 0.158 0.286 1100 0.158 0.158 0.286 0.286
25.300 1100 0.157 0.285 1100 0.157 0.157 0.285 0.285
25.325 1100 0.156 0.283 1100 0.156 0.156 0.283 0.283
25.350 1100 0.155 0.282 1100 0.155 0.155 0.282 0.282
25.375 1100 0.154 0.280 1100 0.154 0.154 0.280 0.280
25.400 1100 0.153 0.279 1100 0.153 0.153 0.279 0.279
25.425 1100 0.152 0.277 1100 0.152 0.152 0.277 0.277
25.450 1100 0.152 0.276 1100 0.152 0.152 0.276 0.276
25.475 1100 0.151 0.274 1100 0.151 0.151 0.274 0.274
25.500 1100 0.150 0.273 1100 0.150 0.150 0.273 0.273
25.525 1100 0.149 0.271 1100 0.149 0.149 0.271 0.271
25.550 900 0.148 0.330 900 0.148 0.148 0.330 0.330
25.575 900 0.147 0.328 900 0.147 0.147 0.328 0.328
25.600 900 0.147 0.326 900 0.147 0.147 0.326 0.326
25.625 900 0.146 0.324 900 0.146 0.146 0.324 0.324
25.650 900 0.145 0.322 900 0.145 0.145 0.322 0.322
25.675 900 0.144 0.320 900 0.144 0.144 0.320 0.320
25.700 900 0.143 0.319 900 0.143 0.143 0.319 0.319
25.725 900 0.142 0.317 900 0.142 0.142 0.317 0.317
25.750 900 0.142 0.315 900 0.142 0.142 0.315 0.315
25.775 900 0.141 0.313 900 0.141 0.141 0.313 0.313
25.800 900 0.140 0.311 900 0.140 0.140 0.311 0.311
25.825 900 0.139 0.309 900 0.139 0.139 0.309 0.309
25.850 900 0.138 0.307 900 0.138 0.138 0.307 0.307
25.875 900 0.138 0.306 900 0.138 0.138 0.306 0.306
25.900 900 0.137 0.304 900 0.137 0.137 0.304 0.304
25.925 900 0.136 0.302 900 0.136 0.136 0.302 0.302
25.950 900 0.135 0.300 900 0.135 0.135 0.300 0.300
25.975 900 0.134 0.298 900 0.134 0.134 0.298 0.298
26.000 900 0.133 0.296 900 0.133 0.133 0.296 0.296
26.025 900 0.133 0.294 900 0.133 0.133 0.294 0.294
26.050 700 0.132 0.376 700 0.132 0.132 0.376 0.376
26.075 700 0.131 0.374 700 0.131 0.131 0.374 0.374
26.100 700 0.130 0.371 700 0.130 0.130 0.371 0.371
26.125 700 0.129 0.369 700 0.129 0.129 0.369 0.369
26.150 700 0.128 0.367 700 0.128 0.128 0.367 0.367
26.175 700 0.128 0.364 700 0.128 0.128 0.364 0.364
26.200 700 0.127 0.362 700 0.127 0.127 0.362 0.362
26.225 700 0.126 0.360 700 0.126 0.126 0.360 0.360
26.250 700 0.125 0.357 700 0.125 0.125 0.357 0.357
26.275 700 0.124 0.355 700 0.124 0.124 0.355 0.355
26.300 700 0.123 0.352 700 0.123 0.123 0.352 0.352
26.325 700 0.122 0.350 700 0.122 0.122 0.350 0.350
26.350 700 0.122 0.348 700 0.122 0.122 0.348 0.348
26.375 700 0.121 0.345 700 0.121 0.121 0.345 0.345
26.400 700 0.120 0.343 700 0.120 0.120 0.343 0.343
26.425 700 0.119 0.340 700 0.119 0.119 0.340 0.340
26.450 700 0.118 0.338 700 0.118 0.118 0.338 0.338
26.475 700 0.117 0.336 700 0.117 0.117 0.336 0.336
26.500 700 0.117 0.333 700 0.117 0.117 0.333 0.333
26.525 700 0.116 0.331 700 0.116 0.116 0.331 0.331
26.550 600 0.115 0.383 600 0.115 0.115 0.383 0.383
26.575 600 0.114 0.381 600 0.114 0.114 0.381 0.381
26.600 600 0.113 0.378 600 0.113 0.113 0.378 0.378
26.625 600 0.113 0.375 600 0.113 0.113 0.375 0.375
26.650 600 0.112 0.372 600 0.112 0.112 0.372 0.372
26.675 600 0.111 0.369 600 0.111 0.111 0.369 0.369
26.700 600 0.110 0.367 600 0.110 0.110 0.367 0.367
26.725 600 0.109 0.364 600 0.109 0.109 0.364 0.364
26.750 600 0.108 0.361 600 0.108 0.108 0.361 0.361
26.775 600 0.107 0.358 600 0.107 0.107 0.358 0.358
26.800 600 0.107 0.356 600 0.107 0.107 0.356 0.356
26.825 600 0.106 0.353 600 0.106 0.106 0.353 0.353
26.850 600 0.105 0.350 600 0.105 0.105 0.350 0.350
26.875 600 0.104 0.347 600 0.104 0.104 0.347 0.347
26.900 600 0.103 0.344 600 0.103 0.103 0.344 0.344
26.925 600 0.102 0.342 600 0.102 0.102 0.342 0.342
26.950 600 0.102 0.339 600 0.102 0.102 0.339 0.339
26.975 600 0.101 0.336 600 0.101 0.101 0.336 0.336
27.000 600 0.100 0.333 600 0.100 0.100 0.333 0.333
27.025 600 0.099 0.331 600 0.099 0.099 0.331 0.331
27.050 500 0.098 0.393 500 0.098 0.098 0.393 0.393
27.075 500 0.098 0.390 500 0.098 0.098 0.390 0.390
27.100 500 0.097 0.387 500 0.097 0.097 0.387 0.387
27.125 500 0.096 0.383 500 0.096 0.096 0.383 0.383
27.150 500 0.095 0.380 500 0.095 0.095 0.380 0.380
27.175 500 0.094 0.377 500 0.094 0.094 0.377 0.377
27.200 500 0.093 0.373 500 0.093 0.093 0.373 0.373
27.225 500 0.092 0.370 500 0.092 0.092 0.370 0.370
27.250 500 0.092 0.367 500 0.092 0.092 0.367 0.367
27.275 500 0.091 0.363 500 0.091 0.091 0.363 0.363
27.300 500 0.090 0.360 500 0.090 0.090 0.360 0.360
27.325 500 0.089 0.357 500 0.089 0.089 0.357 0.357
27.350 500 0.088 0.353 500 0.088 0.088 0.353 0.353
27.375 500 0.087 0.350 500 0.087 0.087 0.350 0.350
27.400 500 0.087 0.347 500 0.087 0.087 0.347 0.347
27.425 500 0.086 0.343 500 0.086 0.086 0.343 0.343
27.450 500 0.085 0.340 500 0.085 0.085 0.340 0.340
27.475 500 0.084 0.337 500 0.084 0.084 0.337 0.337
27.500 500 0.083 0.333 500 0.083 0.083 0.333 0.333
27.525 500 0.083 0.330 500 0.083 0.083 0.330 0.330
27.550 500 0.082 0.327 500 0.082 0.082 0.327 0.327
27.575 500 0.081 0.323 500 0.081 0.081 0.323 0.323
27.600 500 0.080 0.320 500 0.080 0.080 0.320 0.320
27.625 500 0.079 0.317 500 0.079 0.079 0.317 0.317
27.650 500 0.078 0.313 500 0.078 0.078 0.313 0.313
27.675 500 0.077 0.310 500 0.077 0.077 0.310 0.310
27.700 500 0.077 0.307 500 0.077 0.077 0.307 0.307
27.725 500 0.076 0.303 500 0.076 0.076 0.303 0.303
27.750 500 0.075 0.300 500 0.075 0.075 0.300 0.300
27.775 500 0.074 0.297 500 0.074 0.074 0.297 0.297
27.800 500 0.073 0.293 500 0.073 0.073 0.293 0.293
27.825 500 0.072 0.290 500 0.072 0.072 0.290 0.290
27.850 500 0.072 0.287 500 0.072 0.072 0.287 0.287
27.875 500 0.071 0.283 500 0.071 0.071 0.283 0.283
27.900 500 0.070 0.280 500 0.070 0.070 0.280 0.280
27.925 500 0.069 0.277 500 0.069 0.069 0.277 0.277
27.950 500 0.068 0.273 500 0.068 0.068 0.273 0.273
27.975 500 0.068 0.270 500 0.068 0.068 0.270 0.270
28.000 500 0.067 0.267 500 0.067 0.067 0.267 0.267
28.025 500 0.066 0.263 500 0.066 0.066 0.263 0.263
28.050 500 0.065 0.260 500 0.065 0.065 0.260 0.260
28.075 500 0.064 0.257 500 0.064 0.064 0.257 0.257
28.100 500 0.063 0.253 500 0.063 0.063 0.253 0.253
28.125 500 0.062 0.250 500 0.062 0.062 0.250 0.250
28.150 500 0.062 0.247 500 0.062 0.062 0.247 0.247
28.175 500 0.061 0.243 500 0.061 0.061 0.243 0.243
28.200 500 0.060 0.240 500 0.060 0.060 0.240 0.240
28.225 500 0.059 0.237 500 0.059 0.059 0.237 0.237
28.250 500 0.058 0.233 500 0.058 0.058 0.233 0.233
28.275 500 0.058 0.230 500 0.058 0.058 0.230 0.230
28.300 500 0.057 0.227 500 0.057 0.057 0.227 0.227
28.325 500 0.056 0.223 500 0.056 0.056 0.223 0.223
28.350 500 0.055 0.220 500 0.055 0.055 0.220 0.220
28.375 500 0.054 0.217 500 0.054 0.054 0.217 0.217
28.400 500 0.053 0.213 500 0.053 0.053 0.213 0.213
28.425 500 0.052 0.210 500 0.052 0.052 0.210 0.210
28.450 500 0.052 0.207 500 0.052 0.052 0.207 0.207
28.475 500 0.051 0.203 500 0.051 0.051 0.203 0.203
28.500 500 0.050 0.200 500 0.050 0.050 0.200 0.200
28.525 500 0.049 0.197 500 0.049 0.049 0.197 0.197
28.550 500 0.048 0.193 500 0.048 0.048 0.193 0.193
28.575 500 0.048 0.190 500 0.048 0.048 0.190 0.190
28.600 500 0.047 0.187 500 0.047 0.047 0.187 0.187
28.625 500 0.046 0.183 500 0.046 0.046 0.183 0.183
28.650 500 0.045 0.180 500 0.045 0.045 0.180 0.180
28.675 500 0.044 0.177 500 0.044 0.044 0.177 0.177
28.700 500 0.043 0.173 500 0.043 0.043 0.173 0.173
28.725 500 0.043 0.170 500 0.043 0.043 0.170 0.170
28.750 500 0.042 0.167 500 0.042 0.042 0.167 0.167
28.775 500 0.041 0.163 500 0.041 0.041 0.163 0.163
28.800 500 0.040 0.160 500 0.040 0.040 0.160 0.160
28.825 500 0.039 0.157 500 0.039 0.039 0.157 0.157
28.850 500 0.038 0.153 500 0.038 0.038 0.153 0.153
28.875 500 0.037 0.150 500 0.037 0.037 0.150 0.150
28.900 500 0.037 0.147 500 0.037 0.037 0.147 0.147
28.925 500 0.036 0.143 500 0.036 0.036 0.143 0.143
28.950 500 0.035 0.140 500 0.035 0.035 0.140 0.140
28.975 500 0.034 0.137 500 0.034 0.034 0.137 0.137
29.000 500 0.033 0.133 500 0.033 0.033 0.133 0.133
29.025 500 0.033 0.130 500 0.033 0.033 0.130 0.130
29.050 500 0.032 0.127 500 0.032 0.032 0.127 0.127
29.075 500 0.031 0.123 500 0.031 0.031 0.123 0.123
29.100 500 0.030 0.120 500 0.030 0.030 0.120 0.120
29.125 500 0.029 0.117 500 0.029 0.029 0.117 0.117
29.150 500 0.028 0.113 500 0.028 0.028 0.113 0.113
29.175 500 0.028 0.110 500 0.028 0.028 0.110 0.110
29.200 500 0.027 0.107 500 0.027 0.027 0.107 0.107
29.225 500 0.026 0.103 500 0.026 0.026 0.103 0.103
29.250 500 0.025 0.100 500 0.025 0.025 0.100 0.100
29.275 500 0.024 0.097 500 0.024 0.024 0.097 0.097
29.300 500 0.023 0.093 500 0.023 0.023 0.093 0.093
29.325 500 0.022 0.090 500 0.022 0.022 0.090 0.090
29.350 500 0.022 0.087 500 0.022 0.022 0.087 0.087
29.375 500 0.021 0.083 500 0.021 0.021 0.083 0.083
29.400 500 0.020 0.080 500 0.020 0.020 0.080 0.080
29.425 500 0.019 0.077 500 0.019 0.019 0.077 0.077
29.450 500 0.018 0.073 500 0.018 0.018 0.073 0.073
29.475 500 0.018 0.070 500 0.018 0.018 0.070 0.070
29.500 500 0.017 0.067 500 0.017 0.017 0.067 0.067
29.525 500 0.016 0.063 500 0.016 0.016 0.063 0.063
29.550 500 0.015 0.060 500 0.015 0.015 0.060 0.060
29.575 500 0.014 0.057 500 0.014 0.014 0.057 0.057
29.600 500 0.013 0.053 500 0.013 0.013 0.053 0.053
29.625 500 0.013 0.050 500 0.013 0.013 0.050 0.050
29.650 500 0.012 0.047 500 0.012 0.012 0.047 0.047
29.675 500 0.011 0.043 500 0.011 0.011 0.043 0.043
29.700 500 0.010 0.040 500 0.010 0.010 0.040 0.040
29.725 500 0.009 0.037 500 0.009 0.009 0.037 0.037
29.750 500 0.008 0.033 500 0.008 0.008 0.033 0.033
29.775 500 0.007 0.030 500 0.007 0.007 0.030 0.030
29.800 500 0.007 0.027 500 0.007 0.007 0.027 0.027
29.825 500 0.006 0.023 500 0.006 0.006 0.023 0.023
29.850 500 0.005 0.020 500 0.005 0.005 0.020 0.020
29.875 500 0.004 0.017 500 0.004 0.004 0.017 0.017
29.900 500 0.003 0.013 500 0.003 0.003 0.013 0.013
29.925 500 0.003 0.010 500 0.003 0.003 0.010 0.010
29.950 500 0.002 0.007 500 0.002 0.002 0.007 0.007
29.975 500 0.001 0.003 500 0.001 0.001 0.003 0.003
30.000 500 0.000 0.000 500 0.000 0.000 0.000 0.000
